Data from MonoPyChalIsomerACN10uM450nmA_Absorbance_13-11-17-492.txt Node
Date: Tue Jul 09 13:11:17 BST 2024
User: LASERRRRR
Spectrometer: FLMT03099
Trigger mode: 0
Integration Time (sec): 2.000000E-1
Scans to average: 1
Electric dark correction enabled: true
Nonlinearity correction enabled: false
Boxcar width: 0
XAxis mode: Wavelengths
Number of Pixels in Spectrum: 3648
>>>>>Begin Spectral Data<<<<<
179.3399	0.3349
179.5586	0.3349
179.7771	0.3349
179.9957	0.1979
180.2143	-0.4329
180.4329	0.0492
180.6514	-0
180.8699	-0
181.0885	-0
181.307	0.3284
181.5255	-0
181.744	-0
181.9625	1.1348
182.181	-0.1234
182.3994	-0
182.6179	-0.193
182.8363	-0
183.0547	0.1983
183.2732	0.1937
183.4916	0.138
183.71	0.0816
183.9284	0.0541
184.1467	0.0406
184.3651	0.0852
184.5835	0.1216
184.8018	0.0781
185.0201	0.1855
185.2385	0.1139
185.4568	0.0114
185.6751	0.1451
185.8934	0.0528
186.1117	0.1799
186.3299	-0.0803
186.5482	-0.0073
186.7664	-0.0392
186.9847	0.2184
187.2029	0.127
187.4211	0.0748
187.6393	-0.0043
187.8575	0.1334
188.0757	0.0917
188.2939	0.0971
188.512	0.0153
188.7302	0.0859
188.9483	0.0405
189.1665	0.1592
189.3846	0.2448
189.6027	0.1956
189.8208	0.1781
190.0389	0.3063
190.257	0.1141
190.475	0.2366
190.6931	0.1329
190.9111	0.2011
191.1292	0.2892
191.3472	0.3537
191.5652	0.4165
191.7832	0.2979
192.0012	0.3685
192.2192	0.3688
192.4371	0.4565
192.6551	0.4763
192.873	0.382
193.091	0.4976
193.3089	0.6448
193.5268	0.5396
193.7447	0.6082
193.9626	0.4733
194.1805	0.6052
194.3984	0.6015
194.6162	0.5514
194.8341	0.6211
195.0519	0.5884
195.2697	0.6684
195.4875	0.5433
195.7054	0.6256
195.9231	0.6528
196.1409	0.6649
196.3587	0.7386
196.5765	0.7146
196.7942	0.7077
197.012	0.6558
197.2297	0.6951
197.4474	0.7968
197.6651	0.6214
197.8828	0.8226
198.1005	0.8003
198.3182	0.7954
198.5358	0.732
198.7535	0.834
198.9711	0.8448
199.1888	0.7392
199.4064	0.7665
199.624	0.7619
199.8416	0.8025
200.0592	0.8271
200.2767	0.7908
200.4943	0.9125
200.7119	0.7753
200.9294	0.9391
201.1469	0.8277
201.3645	0.8077
201.582	0.9087
201.7995	0.84
202.017	0.9722
202.2344	0.8079
202.4519	0.9203
202.6694	0.8727
202.8868	0.979
203.1042	1.0015
203.3217	0.9308
203.5391	0.8994
203.7565	0.9332
203.9739	0.9227
204.1913	0.8882
204.4086	0.8681
204.626	0.9648
204.8433	0.9543
205.0607	0.9582
205.278	0.9296
205.4953	0.9972
205.7126	1.0493
205.9299	0.9921
206.1472	1.0121
206.3644	1.0244
206.5817	1.0414
206.7989	1.0348
207.0162	1.1019
207.2334	0.9593
207.4506	1.0075
207.6678	1.1346
207.885	1.0213
208.1022	1.0901
208.3194	1.1257
208.5365	1.04
208.7537	0.9562
208.9708	0.9807
209.1879	1.0369
209.405	1.1579
209.6222	1.0777
209.8392	1.1065
210.0563	0.9736
210.2734	1.0697
210.4905	1.0843
210.7075	0.9971
210.9245	0.9958
211.1416	1.0984
211.3586	1.1084
211.5756	1.0568
211.7926	1.0989
212.0096	1.0551
212.2265	1.086
212.4435	1.0742
212.6604	1.1066
212.8774	0.9788
213.0943	1.0045
213.3112	0.9292
213.5281	1.0281
213.745	1.0319
213.9619	0.972
214.1788	0.9487
214.3956	0.9397
214.6125	0.9101
214.8293	0.8774
215.0461	0.971
215.2629	0.8541
215.4798	0.8388
215.6965	0.8372
215.9133	0.8658
216.1301	0.806
216.3469	0.8019
216.5636	0.8145
216.7803	0.7731
216.9971	0.7794
217.2138	0.7201
217.4305	0.7123
217.6472	0.6885
217.8639	0.6295
218.0805	0.6233
218.2972	0.5785
218.5138	0.538
218.7305	0.5223
218.9471	0.4761
219.1637	0.4626
219.3803	0.4212
219.5969	0.3978
219.8135	0.3693
220.0301	0.3488
220.2466	0.3684
220.4632	0.3441
220.6797	0.3298
220.8962	0.3148
221.1127	0.3101
221.3292	0.3084
221.5457	0.2993
221.7622	0.2983
221.9787	0.2795
222.1951	0.2799
222.4116	0.2824
222.628	0.2834
222.8444	0.2756
223.0608	0.2693
223.2772	0.2707
223.4936	0.2705
223.71	0.2691
223.9264	0.2848
224.1427	0.2637
224.3591	0.2695
224.5754	0.2669
224.7917	0.2744
225.008	0.274
225.2243	0.2804
225.4406	0.2887
225.6569	0.2866
225.8732	0.2917
226.0894	0.2867
226.3057	0.2858
226.5219	0.2863
226.7381	0.2788
226.9543	0.2856
227.1705	0.2866
227.3867	0.2934
227.6029	0.2961
227.8191	0.3097
228.0352	0.3042
228.2513	0.3062
228.4675	0.3086
228.6836	0.3227
228.8997	0.3176
229.1158	0.3159
229.3319	0.3124
229.548	0.3285
229.764	0.3206
229.9801	0.3324
230.1961	0.335
230.4121	0.3399
230.6282	0.3441
230.8442	0.347
231.0602	0.341
231.2761	0.351
231.4921	0.3548
231.7081	0.3601
231.924	0.3566
232.14	0.3668
232.3559	0.3636
232.5718	0.3564
232.7877	0.3514
233.0036	0.3672
233.2195	0.3709
233.4353	0.3715
233.6512	0.374
233.867	0.3785
234.0829	0.3686
234.2987	0.3892
234.5145	0.3847
234.7303	0.394
234.9461	0.3992
235.1619	0.394
235.3776	0.3834
235.5934	0.4046
235.8091	0.3839
236.0249	0.3902
236.2406	0.3997
236.4563	0.3866
236.672	0.3993
236.8877	0.4063
237.1034	0.4068
237.319	0.412
237.5347	0.4104
237.7503	0.4136
237.966	0.418
238.1816	0.4144
238.3972	0.4169
238.6128	0.4146
238.8284	0.4057
239.0439	0.4187
239.2595	0.4316
239.475	0.419
239.6906	0.4127
239.9061	0.4226
240.1216	0.4301
240.3371	0.4132
240.5526	0.4206
240.7681	0.4029
240.9836	0.4154
241.199	0.4047
241.4145	0.3988
241.6299	0.4071
241.8453	0.3831
242.0607	0.3852
242.2761	0.3986
242.4915	0.3847
242.7069	0.3982
242.9223	0.3668
243.1376	0.3672
243.353	0.3506
243.5683	0.3518
243.7836	0.3466
243.9989	0.3346
244.2142	0.3303
244.4295	0.3357
244.6448	0.3259
244.86	0.3196
245.0753	0.303
245.2905	0.2938
245.5057	0.2975
245.721	0.2866
245.9362	0.2873
246.1514	0.2847
246.3665	0.2794
246.5817	0.2681
246.7969	0.2754
247.012	0.2614
247.2271	0.2709
247.4423	0.2598
247.6574	0.2606
247.8725	0.2528
248.0876	0.2536
248.3026	0.2313
248.5177	0.2475
248.7328	0.2332
248.9478	0.2335
249.1628	0.242
249.3779	0.2277
249.5929	0.2273
249.8079	0.2196
250.0228	0.2213
250.2378	0.231
250.4528	0.2154
250.6677	0.2295
250.8827	0.2065
251.0976	0.206
251.3125	0.222
251.5274	0.2095
251.7423	0.2093
251.9572	0.2151
252.172	0.2085
252.3869	0.1985
252.6017	0.2008
252.8166	0.1997
253.0314	0.2072
253.2462	0.2149
253.461	0.1993
253.6758	0.199
253.8906	0.2017
254.1053	0.2052
254.3201	0.2037
254.5348	0.1958
254.7496	0.1944
254.9643	0.2021
255.179	0.1964
255.3937	0.1995
255.6083	0.1998
255.823	0.1942
256.0377	0.1975
256.2523	0.1901
256.467	0.2031
256.6816	0.1886
256.8962	0.1981
257.1108	0.2018
257.3254	0.1912
257.54	0.1956
257.7545	0.192
257.9691	0.2058
258.1836	0.1976
258.3981	0.1997
258.6127	0.1931
258.8272	0.1963
259.0417	0.1947
259.2561	0.1942
259.4706	0.1917
259.6851	0.1845
259.8995	0.1907
260.114	0.1935
260.3284	0.2025
260.5428	0.1886
260.7572	0.2038
260.9716	0.1969
261.186	0.1995
261.4003	0.2024
261.6147	0.1966
261.829	0.1998
262.0433	0.1932
262.2577	0.1938
262.472	0.1964
262.6863	0.1867
262.9005	0.1992
263.1148	0.1911
263.3291	0.19
263.5433	0.1923
263.7576	0.192
263.9718	0.1868
264.186	0.1866
264.4002	0.1843
264.6144	0.1848
264.8286	0.1838
265.0427	0.1751
265.2569	0.1792
265.471	0.1793
265.6851	0.1776
265.8993	0.1709
266.1134	0.1697
266.3275	0.1777
266.5415	0.1747
266.7556	0.1858
266.9697	0.1714
267.1837	0.1746
267.3978	0.1863
267.6118	0.1861
267.8258	0.1926
268.0398	0.1976
268.2538	0.1939
268.4677	0.1922
268.6817	0.1923
268.8957	0.1917
269.1096	0.1836
269.3235	0.1776
269.5374	0.1746
269.7514	0.1593
269.9652	0.1658
270.1791	0.1599
270.393	0.1554
270.6068	0.1478
270.8207	0.147
271.0345	0.1534
271.2483	0.1463
271.4622	0.1544
271.676	0.1445
271.8897	0.1363
272.1035	0.1346
272.3173	0.1444
272.531	0.1389
272.7448	0.1409
272.9585	0.1401
273.1722	0.1407
273.3859	0.1345
273.5996	0.1406
273.8133	0.1428
274.0269	0.1334
274.2406	0.1376
274.4542	0.1404
274.6679	0.1386
274.8815	0.1376
275.0951	0.1365
275.3087	0.1334
275.5223	0.1346
275.7358	0.1366
275.9494	0.1427
276.1629	0.1391
276.3765	0.1365
276.59	0.1391
276.8035	0.1387
277.017	0.1322
277.2305	0.1405
277.444	0.1397
277.6574	0.1364
277.8709	0.1424
278.0843	0.1396
278.2978	0.1439
278.5112	0.1383
278.7246	0.1418
278.938	0.1459
279.1513	0.143
279.3647	0.1382
279.5781	0.1397
279.7914	0.1483
280.0047	0.1392
280.2181	0.1438
280.4314	0.146
280.6447	0.1493
280.8579	0.1488
281.0712	0.1489
281.2845	0.1377
281.4977	0.1487
281.711	0.1497
281.9242	0.1504
282.1374	0.1522
282.3506	0.145
282.5638	0.1555
282.7769	0.1538
282.9901	0.1501
283.2033	0.1528
283.4164	0.1501
283.6295	0.1597
283.8426	0.1554
284.0557	0.1476
284.2688	0.1472
284.4819	0.1521
284.695	0.1567
284.908	0.1506
285.1211	0.1617
285.3341	0.1476
285.5471	0.1572
285.7601	0.1521
285.9731	0.158
286.1861	0.1598
286.3991	0.1583
286.612	0.1531
286.825	0.162
287.0379	0.1529
287.2508	0.1538
287.4637	0.1597
287.6766	0.1626
287.8895	0.1622
288.1024	0.1633
288.3152	0.1664
288.5281	0.1546
288.7409	0.1551
288.9538	0.1625
289.1666	0.1666
289.3794	0.1624
289.5922	0.1629
289.8049	0.1573
290.0177	0.161
290.2304	0.1614
290.4432	0.1596
290.6559	0.1601
290.8686	0.1611
291.0813	0.1655
291.294	0.1652
291.5067	0.1588
291.7194	0.1598
291.932	0.1635
292.1447	0.1698
292.3573	0.1701
292.5699	0.1695
292.7825	0.1688
292.9951	0.1615
293.2077	0.164
293.4203	0.1634
293.6328	0.1716
293.8454	0.16
294.0579	0.17
294.2704	0.1676
294.4829	0.1681
294.6954	0.1588
294.9079	0.1623
295.1204	0.1658
295.3328	0.164
295.5453	0.1666
295.7577	0.1603
295.9701	0.1591
296.1825	0.1642
296.3949	0.1535
296.6073	0.1711
296.8197	0.1685
297.0321	0.1696
297.2444	0.161
297.4567	0.1607
297.6691	0.1699
297.8814	0.1579
298.0937	0.1612
298.306	0.167
298.5182	0.16
298.7305	0.1607
298.9428	0.1588
299.155	0.1626
299.3672	0.1644
299.5794	0.1616
299.7916	0.1632
300.0038	0.16
300.216	0.17
300.4282	0.1669
300.6403	0.1583
300.8525	0.1642
301.0646	0.1603
301.2767	0.1654
301.4888	0.1525
301.7009	0.1648
301.913	0.1751
302.125	0.1582
302.3371	0.1674
302.5491	0.1631
302.7612	0.1637
302.9732	0.164
303.1852	0.1604
303.3972	0.1614
303.6092	0.1568
303.8211	0.1676
304.0331	0.1556
304.245	0.1545
304.457	0.1575
304.6689	0.1612
304.8808	0.1565
305.0927	0.1532
305.3046	0.1478
305.5164	0.15
305.7283	0.1576
305.9401	0.1521
306.152	0.1539
306.3638	0.1524
306.5756	0.1473
306.7874	0.1446
306.9992	0.1375
307.2109	0.1476
307.4227	0.1415
307.6344	0.1357
307.8462	0.134
308.0579	0.1332
308.2696	0.1293
308.4813	0.1406
308.693	0.1298
308.9046	0.1253
309.1163	0.1226
309.328	0.1185
309.5396	0.1194
309.7512	0.121
309.9628	0.1201
310.1744	0.1239
310.386	0.1129
310.5976	0.1152
310.8091	0.1093
311.0207	0.1103
311.2322	0.1194
311.4437	0.1167
311.6552	0.1097
311.8667	0.1084
312.0782	0.1137
312.2897	0.106
312.5012	0.1126
312.7126	0.1013
312.924	0.1058
313.1355	0.0976
313.3469	0.1064
313.5583	0.1036
313.7696	0.1062
313.981	0.1025
314.1924	0.0967
314.4037	0.0959
314.6151	0.0982
314.8264	0.0966
315.0377	0.1001
315.249	0.0974
315.4603	0.0928
315.6716	0.1009
315.8828	0.0956
316.0941	0.0934
316.3053	0.0889
316.5165	0.0906
316.7277	0.0892
316.9389	0.0947
317.1501	0.0897
317.3613	0.0934
317.5724	0.0871
317.7836	0.0963
317.9947	0.0963
318.2058	0.0978
318.417	0.088
318.6281	0.092
318.8391	0.0837
319.0502	0.089
319.2613	0.093
319.4723	0.0847
319.6834	0.0872
319.8944	0.097
320.1054	0.0897
320.3164	0.0949
320.5274	0.0996
320.7383	0.0892
320.9493	0.0882
321.1602	0.0945
321.3712	0.0942
321.5821	0.09
321.793	0.0859
322.0039	0.0977
322.2148	0.0972
322.4257	0.0958
322.6365	0.0933
322.8474	0.0955
323.0582	0.1025
323.269	0.0944
323.4798	0.1004
323.6906	0.0987
323.9014	0.09
324.1122	0.0987
324.3229	0.0977
324.5337	0.0895
324.7444	0.0964
324.9551	0.1005
325.1658	0.0948
325.3765	0.0887
325.5872	0.0923
325.7979	0.1014
326.0085	0.1021
326.2192	0.0972
326.4298	0.0985
326.6404	0.0972
326.851	0.0885
327.0616	0.0944
327.2722	0.092
327.4828	0.1037
327.6933	0.1015
327.9039	0.099
328.1144	0.102
328.3249	0.0979
328.5354	0.0963
328.7459	0.1045
328.9564	0.0997
329.1669	0.0998
329.3773	0.1008
329.5878	0.1004
329.7982	0.1022
330.0086	0.1007
330.219	0.1017
330.4294	0.095
330.6398	0.1025
330.8502	0.099
331.0605	0.1019
331.2708	0.105
331.4812	0.1014
331.6915	0.1067
331.9018	0.0934
332.1121	0.1046
332.3224	0.0932
332.5326	0.0925
332.7429	0.1013
332.9531	0.1005
333.1633	0.109
333.3735	0.1066
333.5837	0.1002
333.7939	0.1043
334.0041	0.1041
334.2143	0.1039
334.4244	0.095
334.6346	0.1004
334.8447	0.1015
335.0548	0.1046
335.2649	0.1003
335.475	0.1001
335.685	0.1089
335.8951	0.1022
336.1051	0.1031
336.3152	0.1008
336.5252	0.1059
336.7352	0.0965
336.9452	0.1051
337.1552	0.106
337.3652	0.1055
337.5751	0.1069
337.7851	0.0961
337.995	0.1066
338.2049	0.1057
338.4148	0.1077
338.6247	0.1046
338.8346	0.1022
339.0445	0.1094
339.2543	0.1128
339.4642	0.1071
339.674	0.1068
339.8838	0.1076
340.0936	0.1081
340.3034	0.122
340.5132	0.1083
340.7229	0.1196
340.9327	0.1165
341.1424	0.1148
341.3522	0.1049
341.5619	0.1204
341.7716	0.1255
341.9813	0.1083
342.1909	0.111
342.4006	0.112
342.6102	0.1076
342.8199	0.1164
343.0295	0.1147
343.2391	0.1171
343.4487	0.1157
343.6583	0.1177
343.8679	0.1194
344.0774	0.1185
344.287	0.128
344.4965	0.1213
344.706	0.1277
344.9155	0.1304
345.125	0.1263
345.3345	0.1256
345.544	0.1148
345.7534	0.1126
345.9629	0.1201
346.1723	0.1226
346.3817	0.1287
346.5911	0.1337
346.8005	0.119
347.0099	0.1231
347.2193	0.134
347.4286	0.1345
347.638	0.1308
347.8473	0.1207
348.0566	0.1313
348.2659	0.1292
348.4752	0.1293
348.6845	0.1313
348.8937	0.1347
349.103	0.1215
349.3122	0.1318
349.5214	0.1325
349.7306	0.1377
349.9398	0.1262
350.149	0.1298
350.3582	0.1308
350.5674	0.1428
350.7765	0.128
350.9856	0.1329
351.1948	0.1382
351.4039	0.1405
351.613	0.1301
351.822	0.1333
352.0311	0.1407
352.2402	0.1348
352.4492	0.1388
352.6582	0.1426
352.8672	0.1364
353.0762	0.146
353.2852	0.1451
353.4942	0.1392
353.7032	0.1507
353.9121	0.15
354.1211	0.1503
354.33	0.1413
354.5389	0.1511
354.7478	0.1488
354.9567	0.1518
355.1655	0.1503
355.3744	0.1502
355.5833	0.1438
355.7921	0.1477
356.0009	0.1536
356.2097	0.1522
356.4185	0.1529
356.6273	0.1559
356.8361	0.1453
357.0448	0.1589
357.2536	0.1532
357.4623	0.1592
357.671	0.1595
357.8797	0.1662
358.0884	0.1658
358.2971	0.1711
358.5057	0.1615
358.7144	0.1681
358.923	0.1673
359.1316	0.1581
359.3402	0.1694
359.5488	0.1699
359.7574	0.1686
359.966	0.1821
360.1746	0.174
360.3831	0.1753
360.5916	0.1733
360.8002	0.1806
361.0087	0.1695
361.2172	0.1782
361.4256	0.1746
361.6341	0.1828
361.8426	0.1785
362.051	0.1686
362.2594	0.1835
362.4678	0.1816
362.6762	0.1788
362.8846	0.1778
363.093	0.1938
363.3014	0.1898
363.5097	0.1807
363.718	0.1953
363.9264	0.1882
364.1347	0.2039
364.343	0.1809
364.5513	0.1971
364.7595	0.1972
364.9678	0.1951
365.176	0.1981
365.3842	0.1816
365.5925	0.2011
365.8007	0.199
366.0089	0.2079
366.217	0.1967
366.4252	0.2079
366.6333	0.203
366.8415	0.2001
367.0496	0.2014
367.2577	0.2063
367.4658	0.2075
367.6739	0.2137
367.882	0.2151
368.09	0.2103
368.2981	0.2191
368.5061	0.2139
368.7141	0.2117
368.9221	0.2149
369.1301	0.2173
369.3381	0.2096
369.5461	0.2287
369.754	0.2152
369.962	0.2122
370.1699	0.2238
370.3778	0.2202
370.5857	0.2269
370.7936	0.2107
371.0015	0.2217
371.2093	0.2202
371.4172	0.2235
371.625	0.2124
371.8328	0.2291
372.0406	0.2302
372.2484	0.2169
372.4562	0.2323
372.664	0.2193
372.8717	0.2192
373.0795	0.2276
373.2872	0.2343
373.4949	0.232
373.7026	0.2325
373.9103	0.227
374.118	0.2224
374.3256	0.2243
374.5333	0.2207
374.7409	0.2338
374.9485	0.2392
375.1561	0.2279
375.3637	0.2263
375.5713	0.2352
375.7789	0.2364
375.9864	0.2458
376.194	0.233
376.4015	0.2376
376.609	0.2463
376.8165	0.2386
377.024	0.2336
377.2315	0.2454
377.4389	0.2335
377.6464	0.2315
377.8538	0.2367
378.0612	0.2496
378.2686	0.2436
378.476	0.2404
378.6834	0.2438
378.8908	0.2457
379.0981	0.2576
379.3055	0.2465
379.5128	0.2458
379.7201	0.25
379.9274	0.2599
380.1347	0.2631
380.342	0.2469
380.5492	0.2514
380.7565	0.2536
380.9637	0.2545
381.1709	0.264
381.3781	0.2507
381.5853	0.2648
381.7925	0.2577
381.9997	0.2603
382.2068	0.2483
382.4139	0.2648
382.6211	0.2528
382.8282	0.2572
383.0353	0.2629
383.2424	0.2487
383.4494	0.2685
383.6565	0.2585
383.8635	0.278
384.0706	0.2672
384.2776	0.2603
384.4846	0.2689
384.6916	0.2634
384.8986	0.2669
385.1055	0.2648
385.3125	0.2838
385.5194	0.2676
385.7263	0.2818
385.9333	0.2625
386.1402	0.2674
386.347	0.2756
386.5539	0.2644
386.7608	0.272
386.9676	0.2662
387.1744	0.2451
387.3813	0.2652
387.5881	0.2596
387.7948	0.263
388.0016	0.2623
388.2084	0.2792
388.4151	0.2601
388.6219	0.2559
388.8286	0.2571
389.0353	0.2424
389.242	0.2621
389.4487	0.2464
389.6553	0.2566
389.862	0.2396
390.0686	0.2535
390.2753	0.2595
390.4819	0.2498
390.6885	0.2613
390.8951	0.2454
391.1016	0.2498
391.3082	0.2525
391.5147	0.2559
391.7213	0.2489
391.9278	0.2334
392.1343	0.2483
392.3408	0.2472
392.5473	0.2428
392.7537	0.2459
392.9602	0.237
393.1666	0.2495
393.373	0.2329
393.5794	0.2366
393.7858	0.2304
393.9922	0.2377
394.1986	0.227
394.4049	0.2356
394.6113	0.2433
394.8176	0.2242
395.0239	0.2239
395.2302	0.2266
395.4365	0.2286
395.6428	0.2269
395.8491	0.2323
396.0553	0.2267
396.2615	0.2306
396.4678	0.2439
396.674	0.2191
396.8802	0.225
397.0863	0.2276
397.2925	0.2265
397.4987	0.2226
397.7048	0.2214
397.9109	0.2239
398.117	0.2238
398.3231	0.2238
398.5292	0.229
398.7353	0.2209
398.9413	0.2228
399.1474	0.2198
399.3534	0.2254
399.5594	0.2198
399.7654	0.218
399.9714	0.2234
400.1774	0.2229
400.3833	0.2208
400.5893	0.2276
400.7952	0.2234
401.0011	0.2227
401.207	0.2156
401.4129	0.2141
401.6188	0.2078
401.8247	0.2146
402.0305	0.2083
402.2364	0.2217
402.4422	0.2223
402.648	0.2317
402.8538	0.2231
403.0596	0.2127
403.2654	0.2145
403.4711	0.2054
403.6768	0.2242
403.8826	0.2316
404.0883	0.2173
404.294	0.2201
404.4997	0.2218
404.7054	0.2136
404.911	0.2322
405.1167	0.2222
405.3223	0.2143
405.5279	0.2151
405.7335	0.2212
405.9391	0.2182
406.1447	0.2146
406.3502	0.215
406.5558	0.2205
406.7613	0.207
406.9668	0.2157
407.1724	0.2177
407.3778	0.2198
407.5833	0.2253
407.7888	0.2296
407.9942	0.2197
408.1997	0.2299
408.4051	0.2203
408.6105	0.2217
408.8159	0.2236
409.0213	0.211
409.2267	0.2214
409.432	0.2195
409.6374	0.2179
409.8427	0.2286
410.048	0.2237
410.2533	0.2165
410.4586	0.2204
410.6639	0.2089
410.8691	0.2102
411.0744	0.2201
411.2796	0.2272
411.4848	0.2121
411.69	0.2219
411.8952	0.2163
412.1004	0.2052
412.3056	0.2259
412.5107	0.2203
412.7158	0.214
412.921	0.2154
413.1261	0.2121
413.3312	0.2214
413.5362	0.2165
413.7413	0.2131
413.9464	0.2185
414.1514	0.2186
414.3564	0.2203
414.5614	0.2158
414.7664	0.2165
414.9714	0.2142
415.1764	0.2153
415.3813	0.2133
415.5863	0.2105
415.7912	0.2166
415.9961	0.2203
416.201	0.2157
416.4059	0.2064
416.6108	0.219
416.8156	0.2046
417.0205	0.21
417.2253	0.2168
417.4301	0.2085
417.6349	0.2188
417.8397	0.2145
418.0445	0.2153
418.2492	0.2116
418.454	0.2138
418.6587	0.2
418.8634	0.2011
419.0681	0.2068
419.2728	0.2063
419.4775	0.2099
419.6822	0.2093
419.8868	0.209
420.0915	0.2151
420.2961	0.2102
420.5007	0.2109
420.7053	0.2071
420.9099	0.1908
421.1144	0.2025
421.319	0.1895
421.5235	0.2146
421.728	0.1911
421.9325	0.1947
422.137	0.1867
422.3415	0.2125
422.546	0.1993
422.7504	0.2007
422.9549	0.2055
423.1593	0.195
423.3637	0.1914
423.5681	0.196
423.7725	0.1863
423.9769	0.192
424.1812	0.1789
424.3856	0.1894
424.5899	0.1886
424.7942	0.1838
424.9985	0.1817
425.2028	0.1702
425.4071	0.1787
425.6113	0.1915
425.8156	0.1756
426.0198	0.1926
426.224	0.182
426.4282	0.1744
426.6324	0.1712
426.8366	0.1764
427.0407	0.1757
427.2449	0.1871
427.449	0.178
427.6531	0.1645
427.8572	0.1671
428.0613	0.1709
428.2654	0.1518
428.4694	0.1726
428.6735	0.1716
428.8775	0.15
429.0815	0.1618
429.2855	0.1665
429.4895	0.1593
429.6935	0.1531
429.8975	0.1592
430.1014	0.1519
430.3053	0.1438
430.5093	0.1556
430.7132	0.16
430.9171	0.1469
431.1209	0.1546
431.3248	0.1456
431.5286	0.1616
431.7325	0.1375
431.9363	0.15
432.1401	0.1455
432.3439	0.1389
432.5477	0.135
432.7514	0.1298
432.9552	0.1348
433.1589	0.1365
433.3627	0.1283
433.5664	0.1314
433.7701	0.1205
433.9737	0.1145
434.1774	0.1292
434.3811	0.1265
434.5847	0.13
434.7883	0.1153
434.9919	0.1133
435.1955	0.0961
435.3991	0.111
435.6027	0.1166
435.8062	0.1067
436.0098	0.1137
436.2133	0.107
436.4168	0.1121
436.6203	0.1072
436.8238	0.0999
437.0272	0.1019
437.2307	0.1039
437.4341	0.0935
437.6375	0.1034
437.841	0.0926
438.0443	0.0978
438.2477	0.0894
438.4511	0.1021
438.6545	0.085
438.8578	0.0925
439.0611	0.088
439.2644	0.0932
439.4677	0.0885
439.671	0.0808
439.8743	0.0875
440.0775	0.0771
440.2808	0.0695
440.484	0.0869
440.6872	0.0725
440.8904	0.0675
441.0936	0.0818
441.2967	0.0655
441.4999	0.0777
441.703	0.0613
441.9062	0.0658
442.1093	0.0581
442.3124	0.0647
442.5155	0.0546
442.7185	0.0558
442.9216	0.0652
443.1246	0.0655
443.3276	0.065
443.5307	0.0527
443.7337	0.0631
443.9366	0.0629
444.1396	0.0562
444.3426	0.056
444.5455	0.0472
444.7484	0.0435
444.9513	0.0502
445.1542	0.0505
445.3571	0.0504
445.56	0.0501
445.7628	0.0462
445.9657	0.0517
446.1685	0.0391
446.3713	0.033
446.5741	0.0442
446.7769	0.049
446.9797	0.0354
447.1824	0.0362
447.3852	0.0366
447.5879	0.0417
447.7906	0.0364
447.9933	0.0392
448.196	0.0458
448.3986	0.0314
448.6013	0.0317
448.8039	0.0196
449.0066	0.0274
449.2092	0.0292
449.4118	0.0279
449.6143	0.0281
449.8169	0.0231
450.0195	0.0213
450.222	0.0145
450.4245	0.0162
450.627	0.0299
450.8295	0.0246
451.032	0.0271
451.2345	0.0169
451.4369	0.0283
451.6394	0.0198
451.8418	0.0225
452.0442	0.0152
452.2466	0.0303
452.449	0.0218
452.6513	0.0236
452.8537	0.0167
453.056	0.0153
453.2583	0.0214
453.4607	0.0218
453.663	0.0252
453.8652	0.0193
454.0675	0.0132
454.2697	0.0243
454.472	0.0173
454.6742	0.0221
454.8764	0.0195
455.0786	0.0174
455.2808	0.0112
455.4829	0.0097
455.6851	0.0099
455.8872	0.0095
456.0893	0.0153
456.2915	0.0021
456.4935	0.0103
456.6956	0.009
456.8977	0.0055
457.0997	-0.0017
457.3018	0.0094
457.5038	0.0066
457.7058	0.0075
457.9078	0.0069
458.1098	0.0021
458.3117	0.0085
458.5137	0.014
458.7156	0.0039
458.9175	0.0008
459.1194	0.0108
459.3213	0.0117
459.5232	0.0087
459.725	-0.0067
459.9269	0.0021
460.1287	0.0059
460.3305	-0.008
460.5323	0.0176
460.7341	0.0144
460.9359	0.0145
461.1376	0.0053
461.3394	0.0004
461.5411	0.0024
461.7428	-0.0068
461.9445	0.0074
462.1462	0.0005
462.3479	0.001
462.5495	0.0033
462.7512	0.0035
462.9528	-0.0019
463.1544	0.0052
463.356	0.0019
463.5576	0.0039
463.7592	-0.0149
463.9607	-0.0033
464.1623	0.0066
464.3638	0.0044
464.5653	0.0035
464.7668	0.0024
464.9683	0.0107
465.1697	0.0027
465.3712	0.005
465.5726	0.0065
465.7741	-0.0034
465.9755	0.0006
466.1769	-0.008
466.3782	-0.0034
466.5796	-0.0101
466.7809	-0.007
466.9823	-0.0032
467.1836	-0.0007
467.3849	0.0077
467.5862	-0.0053
467.7875	-0.0026
467.9887	0.0044
468.19	-0.0051
468.3912	0.0073
468.5924	-0.0039
468.7936	-0.0118
468.9948	0.0044
469.196	-0.0058
469.3972	0.0039
469.5983	0.0146
469.7994	-0.0048
470.0006	-0.0081
470.2017	-0.0033
470.4027	-0.0012
470.6038	-0.0077
470.8049	0.0002
471.0059	-0.0094
471.2069	0.0116
471.408	0.0006
471.6089	0.0068
471.8099	0.0056
472.0109	-0.0096
472.2119	-0.0099
472.4128	0.0008
472.6137	-0.0063
472.8146	-0.0066
473.0155	-0.0103
473.2164	-0.0208
473.4173	-0.0077
473.6181	0.0008
473.819	-0.0084
474.0198	-0.0044
474.2206	-0.0009
474.4214	-0.0061
474.6222	-0.0075
474.8229	-0.0085
475.0237	0.0049
475.2244	-0.0032
475.4251	-0.007
475.6258	0.0108
475.8265	-0.0062
476.0272	-0.0057
476.2278	-0.0016
476.4285	0.0032
476.6291	-0.0032
476.8297	-0.0057
477.0303	-0.004
477.2309	0.004
477.4315	0.0067
477.632	-0.0069
477.8326	-0.0027
478.0331	-0.0032
478.2336	-0.0007
478.4341	-0.0044
478.6346	-0.0007
478.8351	-0.0087
479.0355	-0.013
479.236	-0.0098
479.4364	-0.0132
479.6368	-0.0021
479.8372	-0.0019
480.0376	-0.0026
480.2379	-0.0103
480.4383	-0.0105
480.6386	-0.0146
480.8389	-0.0042
481.0392	-0.0079
481.2395	-0.0156
481.4398	0.0021
481.6401	-0.0147
481.8403	-0.0017
482.0405	-0.008
482.2408	0.0048
482.441	-0.007
482.6411	0.0015
482.8413	-0.0033
483.0415	-0.0068
483.2416	-0.0026
483.4417	-0.0046
483.6419	-0.0005
483.8419	-0.0113
484.042	-0.006
484.2421	-0.0031
484.4422	-0.008
484.6422	-0.0025
484.8422	-0.0049
485.0422	-0.0073
485.2422	-0.0075
485.4422	-0.0025
485.6422	-0.0044
485.8421	-0.0089
486.042	0.0006
486.242	-0.0048
486.4419	-0.0031
486.6417	-0.005
486.8416	0.0003
487.0415	0.0029
487.2413	-0.0044
487.4411	-0.0037
487.641	-0.0025
487.8408	-0.0069
488.0405	-0.0058
488.2403	-0.0054
488.4401	-0.0041
488.6398	-0.0052
488.8395	-0.0102
489.0392	-0.0067
489.2389	-0.0044
489.4386	-0.0056
489.6383	-0.0037
489.8379	-0.0069
490.0376	0.0001
490.2372	0.0005
490.4368	-0.0049
490.6364	-0.007
490.836	-0.0074
491.0355	-0.0019
491.2351	-0.0068
491.4346	-0.0071
491.6341	-0.0014
491.8336	-0.0022
492.0331	-0.0136
492.2326	-0.0131
492.432	-0.0018
492.6315	-0.0086
492.8309	-0.0076
493.0303	-0.0081
493.2297	-0.0051
493.4291	-0.0096
493.6284	-0.0076
493.8278	0.0011
494.0271	-0.0008
494.2264	-0.008
494.4257	-0.0038
494.625	-0.0039
494.8243	0.0006
495.0236	-0.016
495.2228	-0.0118
495.422	-0.0031
495.6213	-0.0073
495.8205	-0.0016
496.0196	-0.0014
496.2188	-0.0053
496.418	-0.0025
496.6171	-0.0032
496.8162	-0.0115
497.0153	0.0025
497.2144	-0.0047
497.4135	-0.0087
497.6126	-0.0018
497.8116	-0.001
498.0107	-0.002
498.2097	-0.0078
498.4087	-0.0068
498.6077	-0.0066
498.8067	-0.0121
499.0056	0.0012
499.2046	-0.0049
499.4035	-0.0083
499.6024	0.0002
499.8013	0.0021
500.0002	-0.0059
500.199	-0.0049
500.3979	-0.0047
500.5967	-0.0096
500.7956	-0.0077
500.9944	-0.0051
501.1932	-0.0032
501.3919	-0.0107
501.5907	-0.0088
501.7895	-0.0025
501.9882	-0.0178
502.1869	-0.0037
502.3856	-0.0029
502.5843	-0.0097
502.783	-0.0115
502.9816	-0.0066
503.1803	-0.008
503.3789	-0.006
503.5775	-0.0045
503.7761	-0.0002
503.9747	-0.0105
504.1732	-0.0043
504.3718	-0.0015
504.5703	-0.0053
504.7689	0.0006
504.9674	-0.002
505.1658	-0.0091
505.3643	-0.004
505.5628	-0.0007
505.7612	-0.0083
505.9597	-0.0089
506.1581	-0.0067
506.3565	-0.009
506.5549	-0.008
506.7532	-0.0097
506.9516	-0.0044
507.1499	-0.0036
507.3482	-0.0101
507.5465	-0.0063
507.7448	-0.0059
507.9431	-0.011
508.1414	-0.0065
508.3396	-0.0021
508.5379	0.0024
508.7361	-0.0012
508.9343	-0.005
509.1325	-0.0037
509.3306	-0.0003
509.5288	-0.0002
509.7269	-0.0081
509.9251	-0.0035
510.1232	-0.0044
510.3213	-0.0133
510.5193	0.0014
510.7174	0
510.9154	-0.0049
511.1135	-0.0046
511.3115	-0.0099
511.5095	-0.0103
511.7075	-0.0011
511.9055	-0.0087
512.1034	-0.007
512.3014	-0.0055
512.4993	-0.005
512.6972	-0.004
512.8951	-0.0098
513.093	-0.0049
513.2908	0.0045
513.4887	-0.0069
513.6865	-0.0091
513.8844	-0.001
514.0822	-0.0012
514.2799	-0.0085
514.4777	-0.0061
514.6755	-0.0036
514.8732	-0.0051
515.0709	-0.0073
515.2687	-0.0094
515.4664	-0.0112
515.664	-0.0087
515.8617	-0.0088
516.0594	-0.0069
516.257	-0.0047
516.4546	-0.0143
516.6522	-0.0089
516.8498	-0.0121
517.0474	-0.0021
517.2449	-0.0091
517.4425	-0.0078
517.64	-0.0036
517.8375	-0.0054
518.035	-0.0033
518.2325	-0.0103
518.43	-0.0084
518.6274	-0.009
518.8249	-0.0074
519.0223	-0.0154
519.2197	-0.0057
519.4171	-0.0017
519.6145	-0.0006
519.8118	-0.0125
520.0092	-0.0048
520.2065	-0.0124
520.4038	-0.0087
520.6011	-0.0033
520.7984	-0.0083
520.9956	-0.0045
521.1929	-0.0063
521.3901	-0.01
521.5874	-0.0035
521.7846	0.0011
521.9818	-0.0014
522.1789	-0.0031
522.3761	-0.0068
522.5732	-0.0098
522.7704	-0.0001
522.9675	-0.0051
523.1646	-0.0071
523.3617	-0.0082
523.5587	-0.0075
523.7558	-0.002
523.9528	-0.0061
524.1498	-0.0062
524.3468	-0.004
524.5438	-0.0096
524.7408	-0.0113
524.9378	-0.0061
525.1347	0.002
525.3316	-0
525.5285	0.0008
525.7254	-0.0161
525.9223	-0.0037
526.1192	-0.006
526.316	-0.0038
526.5129	-0.0037
526.7097	-0.014
526.9065	-0.0012
527.1033	-0.0015
527.3	-0.0106
527.4968	-0.0165
527.6935	0.0016
527.8903	-0.0005
528.087	-0.0099
528.2837	-0.0005
528.4804	-0.0024
528.677	-0.0078
528.8737	-0.0057
529.0703	0.0022
529.2669	0.0038
529.4635	-0.0092
529.6601	-0.0067
529.8567	-0.0051
530.0532	-0.0043
530.2498	-0.0056
530.4463	0.0002
530.6428	0.0031
530.8393	-0.0007
531.0358	-0.0101
531.2322	-0.0056
531.4287	-0.0083
531.6251	-0.0047
531.8215	0.0013
532.0179	-0.0079
532.2143	-0.0017
532.4107	0.0001
532.607	-0.0066
532.8034	-0.0044
532.9997	-0.0039
533.196	-0.0031
533.3923	-0.0014
533.5886	-0.0015
533.7848	0.0045
533.9811	-0.0072
534.1773	-0.0066
534.3735	-0.0047
534.5697	-0.0006
534.7659	-0.0057
534.9621	0.0012
535.1582	-0.0119
535.3544	-0.0117
535.5505	-0.0018
535.7466	-0.0011
535.9427	0.0009
536.1387	-0.0057
536.3348	-0.001
536.5308	-0.0002
536.7269	0.0015
536.9229	-0.0091
537.1189	-0.0031
537.3148	0.0012
537.5108	0.0002
537.7068	-0.0087
537.9027	-0.003
538.0986	0.0026
538.2945	-0.0067
538.4904	-0.0039
538.6863	-0.0053
538.8821	-0.0015
539.078	-0.0061
539.2738	-0.0129
539.4696	-0.0034
539.6654	-0.0051
539.8611	-0.0081
540.0569	-0.0058
540.2526	-0.0078
540.4484	0.0094
540.6441	0.0004
540.8398	-0.003
541.0355	-0.0049
541.2311	-0.0006
541.4268	-0.0011
541.6224	0.0042
541.818	-0.0024
542.0136	-0.0039
542.2092	-0.0057
542.4048	-0.0096
542.6003	-0.0034
542.7959	-0.0058
542.9914	-0.0073
543.1869	-0.0038
543.3824	-0.0074
543.5779	-0.0164
543.7734	-0.0095
543.9688	-0.0115
544.1642	-0.0076
544.3596	-0.0108
544.555	-0.0031
544.7504	-0.0002
544.9458	-0.0087
545.1411	0.0035
545.3365	-0.0045
545.5318	-0.0018
545.7271	-0.0009
545.9224	-0.002
546.1177	-0.0088
546.3129	0.0032
546.5081	0.0018
546.7034	0.0018
546.8986	-0.0046
547.0938	-0.0063
547.289	-0.007
547.4841	-0.0075
547.6793	-0.0053
547.8744	0.0033
548.0695	-0.0016
548.2646	-0.0042
548.4597	0.0051
548.6548	0.0013
548.8498	-0.0034
549.0448	-0.003
549.2399	0.002
549.4349	-0.0005
549.6298	-0.0088
549.8248	-0.0054
550.0198	-0.0038
550.2147	0.0045
550.4096	-0.0094
550.6045	-0.0035
550.7994	0.0027
550.9943	0.0028
551.1892	-0.0011
551.384	-0.0106
551.5788	-0.004
551.7737	-0.0052
551.9685	-0.0113
552.1632	-0.0063
552.358	-0.0066
552.5528	-0.0084
552.7475	-0.0087
552.9422	-0.0102
553.1369	-0.0083
553.3316	0.0032
553.5263	-0.0059
553.7209	-0.0039
553.9156	0.0021
554.1102	-0.0047
554.3048	-0.0133
554.4994	-0.0078
554.694	-0.0024
554.8885	-0.0072
555.0831	-0.0041
555.2776	-0.0017
555.4721	-0.0063
555.6666	-0.0064
555.8611	-0.0095
556.0555	-0.0071
556.25	-0.0022
556.4444	-0.0063
556.6388	-0.0078
556.8332	-0.0017
557.0276	-0.004
557.222	-0.0024
557.4163	0.0049
557.6107	-0.009
557.805	-0.0019
557.9993	0.0023
558.1936	-0.0014
558.3879	0.0068
558.5821	-0.0011
558.7764	-0.0055
558.9706	-0
559.1648	-0.005
559.359	-0.0087
559.5532	-0.0097
559.7473	-0.0097
559.9415	-0.0095
560.1356	-0.0082
560.3297	-0.0029
560.5238	-0.0091
560.7179	-0.004
560.9119	-0.0001
561.106	-0.0007
561.3	-0.0052
561.494	-0.0061
561.688	-0.002
561.882	-0.0066
562.076	-0.0053
562.2699	-0.002
562.4639	-0.0034
562.6578	-0.0034
562.8517	-0.0021
563.0456	-0.0008
563.2395	-0.0027
563.4333	-0.0051
563.6272	-0.0014
563.821	-0.0058
564.0148	0.0054
564.2086	-0.0045
564.4024	-0.0056
564.5961	-0.0059
564.7899	0.0009
564.9836	0.001
565.1773	0.0035
565.371	-0.0004
565.5647	0.0015
565.7584	-0.0015
565.952	0.006
566.1456	-0.0012
566.3393	-0.0044
566.5329	0.0003
566.7264	0.0029
566.92	0.002
567.1136	-0.0032
567.3071	-0
567.5006	-0.0011
567.6941	-0.001
567.8876	0.0008
568.0811	-0.0005
568.2745	-0.0111
568.468	-0.001
568.6614	-0.0089
568.8548	-0.0078
569.0482	-0.0035
569.2416	-0.0065
569.4349	-0.0042
569.6283	-0.0021
569.8216	-0.0064
570.0149	-0.0098
570.2082	0.0032
570.4015	-0.0025
570.5947	-0.0009
570.788	-0.0056
570.9812	-0.0019
571.1744	-0.013
571.3676	-0.0055
571.5608	-0.0012
571.754	-0.0051
571.9471	-0.0102
572.1402	-0.0066
572.3333	-0.0011
572.5264	-0.0013
572.7195	0.0012
572.9126	0.0004
573.1057	-0.0056
573.2987	0.0018
573.4917	-0.008
573.6847	-0.0012
573.8777	-0.0061
574.0707	0.0006
574.2636	-0.0032
574.4566	-0.0034
574.6495	-0.0003
574.8424	-0.0021
575.0353	-0.0002
575.2281	-0.0008
575.421	-0.0016
575.6138	-0.0045
575.8067	0.0001
575.9995	0.0013
576.1923	-0.0043
576.385	-0.0073
576.5778	0.0005
576.7706	-0.0006
576.9633	-0.0039
577.156	0.0015
577.3487	-0.0019
577.5414	0.0023
577.734	-0.0003
577.9267	0.0024
578.1193	-0.0037
578.3119	0.0003
578.5045	-0.0051
578.6971	-0.0003
578.8897	-0.0081
579.0822	-0.0016
579.2747	0.0069
579.4673	-0.0007
579.6598	-0.0001
579.8522	-0.0008
580.0447	-0.0011
580.2372	0.0026
580.4296	0.0032
580.622	0.0035
580.8144	-0.0039
581.0068	-0.0012
581.1992	0.0029
581.3915	-0.0027
581.5839	-0.0014
581.7762	-0.0036
581.9685	-0.0017
582.1608	-0.0062
582.353	0.0018
582.5453	-0.0035
582.7375	0.0009
582.9298	-0.0082
583.122	-0.0004
583.3142	-0.0059
583.5063	0.0011
583.6985	-0.0044
583.8906	-0.004
584.0827	-0.0029
584.2749	-0.0059
584.4669	-0.0024
584.659	-0.0067
584.8511	-0.003
585.0431	-0.0027
585.2352	-0.0046
585.4272	-0.0054
585.6192	-0.0021
585.8111	-0.0041
586.0031	-0.0028
586.195	-0.0029
586.387	0.0021
586.5789	-0.0045
586.7708	-0.0039
586.9627	-0.0042
587.1545	-0.0041
587.3464	-0.0079
587.5382	-0.0037
587.73	-0.0015
587.9218	-0.0056
588.1136	0.0021
588.3053	-0.0007
588.4971	-0.0084
588.6888	-0.004
588.8805	-0.0051
589.0722	0.0016
589.2639	0.0018
589.4556	-0.0032
589.6472	-0.0004
589.8389	-0.0016
590.0305	-0.008
590.2221	-0.0009
590.4137	-0.0071
590.6052	-0.0031
590.7968	-0.0051
590.9883	-0.0013
591.1798	-0.0082
591.3713	0
591.5628	-0.0041
591.7543	-0.0031
591.9458	-0.0031
592.1372	-0.0051
592.3286	0.0016
592.52	-0.0032
592.7114	0.0019
592.9028	-0.0029
593.0941	-0.001
593.2855	-0.0032
593.4768	0.0024
593.6681	0.0031
593.8594	0.0012
594.0506	-0.0001
594.2419	0.0031
594.4331	-0.0026
594.6244	-0.0035
594.8156	-0.0069
595.0067	-0.0021
595.1979	-0.003
595.3891	-0.0071
595.5802	-0.0078
595.7713	-0.0025
595.9624	-0.0019
596.1535	-0.0017
596.3446	-0.0015
596.5357	0.0013
596.7267	-0.0029
596.9177	-0.0004
597.1087	-0.0031
597.2997	0.0047
597.4907	0
597.6817	0.0002
597.8726	-0.0076
598.0635	-0.0044
598.2544	-0.0036
598.4453	-0.0071
598.6362	-0.0063
598.827	-0.0029
599.0179	-0.002
599.2087	-0.0137
599.3995	-0.0075
599.5903	-0.0039
599.7811	-0.0031
599.9718	0.0002
600.1626	0.0009
600.3533	-0.0019
600.544	-0.0042
600.7347	0.0036
600.9254	-0.0024
601.116	-0.0053
601.3067	-0.0039
601.4973	-0.0076
601.6879	-0.0017
601.8785	-0.0048
602.0691	-0.0031
602.2596	-0.0023
602.4502	-0.0031
602.6407	-0.0035
602.8312	-0.0062
603.0217	-0.0041
603.2122	0.0003
603.4027	0.0005
603.5931	-0.0058
603.7835	-0.0009
603.9739	-0.002
604.1643	-0.0027
604.3547	0.0026
604.5451	-0.0029
604.7354	-0.0011
604.9257	-0.0046
605.116	-0.0011
605.3063	0.0026
605.4966	-0.0015
605.6869	-0.004
605.8771	-0.0018
606.0673	0.0029
606.2575	-0.0025
606.4477	-0.0058
606.6379	-0.0096
606.8281	-0.0057
607.0182	-0.0059
607.2083	-0.003
607.3985	-0.0085
607.5885	-0.0031
607.7786	-0.0036
607.9687	-0.001
608.1587	-0.0016
608.3488	-0.0059
608.5388	0.0012
608.7288	-0.0007
608.9187	-0.0024
609.1087	-0.0044
609.2986	-0.0019
609.4886	-0.0079
609.6785	0.0016
609.8684	0.0001
610.0582	-0.004
610.2481	-0.0006
610.4379	-0.0018
610.6278	-0.0017
610.8176	0.0005
611.0074	-0.0027
611.1971	0.0015
611.3869	-0.0029
611.5766	0.0032
611.7664	0.0036
611.9561	0.0006
612.1458	0.0072
612.3354	-0.0088
612.5251	-0.0073
612.7147	0.0005
612.9044	-0.0039
613.094	0.0005
613.2836	0.0012
613.4731	-0.0039
613.6627	-0.0052
613.8522	-0.0023
614.0417	-0.0047
614.2313	-0.0053
614.4207	-0.0026
614.6102	0.0021
614.7997	-0.0049
614.9891	-0.003
615.1785	-0.0034
615.3679	0.0003
615.5573	-0.0023
615.7467	-0.001
615.9361	0.0026
616.1254	-0.003
616.3147	-0.0071
616.504	0.0007
616.6933	-0.0012
616.8826	-0.0052
617.0718	-0.0023
617.2611	0.0001
617.4503	0.0026
617.6395	-0.0001
617.8287	-0.0031
618.0179	0.0049
618.207	-0.0046
618.3961	-0.0014
618.5853	-0.0028
618.7744	-0.0001
618.9634	0.0054
619.1525	-0.01
619.3416	-0.0116
619.5306	0.0001
619.7196	0.0002
619.9086	-0.0019
620.0976	-0.0007
620.2866	0.0007
620.4755	-0.0052
620.6645	-0.003
620.8534	0.0001
621.0423	-0.0093
621.2312	-0.0043
621.42	-0.0012
621.6089	-0.0025
621.7977	-0.0042
621.9865	-0.0056
622.1753	0.0067
622.3641	0.0006
622.5529	0.0021
622.7416	-0.0012
622.9303	0.0029
623.1191	-0.005
623.3078	0.0049
623.4964	-0.0006
623.6851	-0.0005
623.8737	0.0009
624.0624	0.0047
624.251	0.0023
624.4396	0.0003
624.6282	-0.0033
624.8167	0.0035
625.0053	-0.0001
625.1938	0.0016
625.3823	0.0019
625.5708	0.0049
625.7593	-0.0033
625.9477	-0.0052
626.1362	-0.0002
626.3246	-0.0035
626.513	-0.005
626.7014	-0.0027
626.8898	-0.01
627.0781	-0.0012
627.2665	-0.0007
627.4548	-0.0055
627.6431	-0.005
627.8314	-0.0023
628.0197	-0.001
628.2079	-0.0024
628.3962	0.0084
628.5844	0.0003
628.7726	0.0017
628.9608	-0.0007
629.1489	0.0065
629.3371	0.0037
629.5252	0.0029
629.7134	0.0014
629.9015	-0.0014
630.0895	0.0011
630.2776	-0.0023
630.4657	-0.0033
630.6537	-0.0004
630.8417	-0.0006
631.0297	-0.0029
631.2177	0
631.4057	-0.001
631.5936	-0.0007
631.7815	0.0006
631.9695	0.0021
632.1574	-0.0032
632.3452	-0.0072
632.5331	-0.0049
632.7209	-0.0082
632.9088	-0.002
633.0966	-0.0046
633.2844	-0.0019
633.4722	0.0005
633.6599	-0.0007
633.8477	-0.0017
634.0354	-0.0065
634.2231	-0.0052
634.4108	-0.0036
634.5985	0
634.7861	0.0006
634.9738	-0.005
635.1614	-0.004
635.349	-0.0013
635.5366	-0.002
635.7242	0.0003
635.9117	0.0026
636.0993	-0.0021
636.2868	-0.0032
636.4743	0.0032
636.6618	-0.0025
636.8492	-0.0046
637.0367	-0.0041
637.2241	0.0009
637.4115	-0.005
637.5989	-0.0017
637.7863	0.0017
637.9737	-0.0042
638.161	-0.0015
638.3484	-0.0022
638.5357	-0.0023
638.723	-0.0018
638.9103	-0.0002
639.0975	0.0051
639.2848	0.0008
639.472	0.0041
639.6592	0.0076
639.8464	-0.0003
640.0336	-0.0025
640.2208	0.0044
640.4079	-0.0023
640.595	0.0035
640.7821	-0.0014
640.9692	-0.0014
641.1563	0.0027
641.3434	0.0046
641.5304	0.0016
641.7174	0.0046
641.9044	0.0053
642.0914	0.0008
642.2784	-0.0006
642.4653	0.0032
642.6523	-0.0026
642.8392	0.0057
643.0261	0.0035
643.213	-0.0017
643.3999	0.0002
643.5867	-0.0017
643.7735	0.0024
643.9604	-0.0002
644.1472	0
644.3339	-0.0012
644.5207	-0.0008
644.7075	-0.0017
644.8942	-0.0049
645.0809	0.0011
645.2676	-0.0036
645.4543	0.0059
645.6409	0.002
645.8276	0.0007
646.0142	-0.0018
646.2008	-0.003
646.3874	-0.0041
646.574	-0.0056
646.7605	0.0044
646.9471	-0.0055
647.1336	-0.0034
647.3201	-0.005
647.5066	-0.0024
647.6931	0.0018
647.8795	-0.003
648.0659	-0.002
648.2524	-0.0006
648.4388	-0.0035
648.6252	-0.0036
648.8115	-0.0112
648.9979	-0.0045
649.1842	-0.0065
649.3705	0.0002
649.5568	-0.0007
649.7431	-0.002
649.9294	-0.002
650.1156	-0.0023
650.3018	-0.0025
650.488	-0.0042
650.6742	-0.0053
650.8604	-0.0007
651.0466	0.0009
651.2327	-0.0022
651.4188	-0.0003
651.6049	0.0038
651.791	0.0023
651.9771	0.0017
652.1632	0.002
652.3492	0.0028
652.5352	-0.0002
652.7212	0.0039
652.9072	0.0048
653.0932	0.0022
653.2791	-0.002
653.465	-0.0019
653.651	-0.0041
653.8369	-0.0051
654.0227	0.0044
654.2086	0.0002
654.3944	-0.0041
654.5803	-0.0075
654.7661	-0.0008
654.9519	-0.0027
655.1377	-0.0025
655.3234	0
655.5092	0
655.6949	0
655.8806	0
656.0663	0
656.2519	0
656.4376	-0.0032
656.6232	-0.0037
656.8088	0.0003
656.9945	0.0009
657.18	0.0021
657.3656	-0.0022
657.5511	-0.0031
657.7367	-0.0006
657.9222	0.004
658.1077	-0.0006
658.2932	-0.0018
658.4786	-0.0023
658.6641	0.0004
658.8495	0.0005
659.0349	-0.0025
659.2203	-0.0076
659.4057	-0.004
659.591	-0.004
659.7764	-0.0056
659.9617	-0.0074
660.147	-0.0044
660.3323	-0.0057
660.5176	-0.008
660.7028	-0.0048
660.888	-0.0029
661.0733	-0.001
661.2585	-0.007
661.4436	-0.0031
661.6288	-0.0033
661.8139	0.0012
661.9991	0.0015
662.1842	0.0033
662.3693	0.001
662.5544	0.0018
662.7394	-0.001
662.9245	0.0032
663.1095	0.0029
663.2945	-0.0037
663.4795	-0.0032
663.6644	-0.0028
663.8494	-0.0037
664.0343	-0.0014
664.2193	-0.0053
664.4042	-0.0088
664.589	-0.0021
664.7739	-0.0057
664.9587	0.0017
665.1436	0.0022
665.3284	0.0012
665.5132	-0.0013
665.698	0.0046
665.8827	0.0009
666.0675	-0.0062
666.2522	-0.0037
666.4369	-0.007
666.6216	-0.01
666.8063	-0.0043
666.9909	-0.009
667.1756	-0.0075
667.3602	-0.0094
667.5448	-0.0103
667.7294	-0.0026
667.9139	-0.0044
668.0985	-0.0096
668.283	-0.0077
668.4675	-0.0119
668.652	-0.008
668.8365	-0.008
669.0209	-0.0073
669.2054	-0.0019
669.3898	-0.0061
669.5742	-0.0085
669.7586	-0.0011
669.943	-0.0033
670.1273	-0.0104
670.3117	-0.0012
670.496	-0.0079
670.6803	0.0011
670.8646	0.0001
671.0488	-0.0011
671.2331	0.0002
671.4173	0.0018
671.6015	-0.0033
671.7857	-0.0027
671.9699	-0.0037
672.1541	-0.0042
672.3382	-0.0059
672.5223	-0.0063
672.7064	-0.008
672.8905	-0.0175
673.0746	-0.0113
673.2587	-0.0138
673.4427	-0.0141
673.6267	-0.0177
673.8107	-0.0116
673.9947	-0.0097
674.1787	-0.0096
674.3626	-0.0096
674.5465	-0.0022
674.7304	0.0003
674.9143	-0.0043
675.0982	-0.0033
675.2821	-0.0013
675.4659	-0.0025
675.6497	-0.0029
675.8335	-0.0029
676.0173	-0.0079
676.2011	-0.0051
676.3849	-0.0059
676.5686	-0.0015
676.7523	0.0004
676.936	0.0012
677.1197	-0.0072
677.3034	-0.0109
677.487	-0.0061
677.6706	-0.0037
677.8542	-0.0031
678.0378	0.0029
678.2214	-0.0083
678.405	-0.0058
678.5885	-0.0086
678.772	-0.0022
678.9555	-0.0024
679.139	-0.0071
679.3225	-0.0093
679.5059	-0.0085
679.6894	-0.0037
679.8728	0.0011
680.0562	-0.0007
680.2395	0.0001
680.4229	-0.0002
680.6062	0.0041
680.7896	0.0027
680.9729	0.0004
681.1562	-0.0016
681.3394	0.003
681.5227	-0.0007
681.7059	-0.0012
681.8891	-0.0033
682.0723	-0.0029
682.2555	-0.0063
682.4387	0.0003
682.6218	-0.0045
682.805	-0.0042
682.9881	-0.005
683.1712	0.0022
683.3542	0.0027
683.5373	-0.0052
683.7203	-0.0061
683.9034	-0.0063
684.0864	-0.0024
684.2694	-0.0033
684.4523	-0.0052
684.6353	-0.0005
684.8182	-0.0031
685.0011	-0.0067
685.184	0.0009
685.3669	0.0002
685.5498	0.0025
685.7326	0.0013
685.9154	-0.0055
686.0982	-0.0041
686.281	-0.0042
686.4638	-0.004
686.6465	-0.0053
686.8293	-0.0045
687.012	-0.0025
687.1947	-0.0072
687.3774	-0.0018
687.56	-0.0061
687.7427	0.0005
687.9253	-0.0029
688.1079	0.002
688.2905	-0.0027
688.4731	-0.003
688.6556	-0.0037
688.8382	-0.0008
689.0207	0.0004
689.2032	-0.004
689.3857	0.0003
689.5681	-0.0007
689.7506	0.0018
689.933	0.0025
690.1154	0.0024
690.2978	0.0037
690.4802	-0.0035
690.6626	0.0026
690.8449	-0.0019
691.0272	0.0033
691.2095	0.005
691.3918	-0.0013
691.5741	-0.0025
691.7563	0.0026
691.9386	-0.0059
692.1208	-0.0061
692.303	0.0005
692.4852	-0.0033
692.6673	0.0002
692.8495	-0.0109
693.0316	-0.0018
693.2137	-0.0045
693.3958	-0.0052
693.5778	-0.0009
693.7599	-0.0022
693.9419	-0.0122
694.1239	-0.0052
694.3059	-0.0102
694.4879	-0.0057
694.6699	-0.0134
694.8518	-0.0068
695.0337	-0.0036
695.2157	-0.0014
695.3975	-0.0068
695.5794	-0.0058
695.7613	-0.0093
695.9431	-0.0069
696.1249	-0.0036
696.3067	-0.0121
696.4885	0.002
696.6703	-0.0072
696.852	-0.0031
697.0337	-0.0008
697.2154	0.0043
697.3971	-0.0029
697.5788	-0.0056
697.7605	-0.0027
697.9421	-0.0036
698.1237	-0.0054
698.3053	-0.0034
698.4869	-0.0002
698.6685	-0.0049
698.85	-0.0052
699.0315	0.0003
699.213	-0.001
699.3945	0.0038
699.576	0.0073
699.7575	-0.0023
699.9389	-0.0013
700.1203	-0.0056
700.3017	-0.0075
700.4831	-0.0018
700.6645	-0.0102
700.8458	-0.0026
701.0271	-0.0037
701.2084	-0.0114
701.3897	-0.0015
701.571	0.0037
701.7523	0.0027
701.9335	-0.0001
702.1147	0.0093
702.2959	0.0005
702.4771	0.0017
702.6583	0.0047
702.8394	-0.0006
703.0205	0.0028
703.2016	-0.0036
703.3827	0.005
703.5638	-0.0053
703.7449	-0.0103
703.9259	-0.0034
704.1069	-0.0002
704.2879	-0.0031
704.4689	-0.0092
704.6499	-0.006
704.8308	0.0005
705.0117	-0.0027
705.1927	0.0014
705.3735	-0.0007
705.5544	0.0039
705.7353	0.0006
705.9161	-0.0002
706.0969	0.0034
706.2777	-0.0022
706.4585	0.0011
706.6393	-0.0019
706.82	-0.0047
707.0007	-0.0011
707.1815	-0.001
707.3621	-0.0021
707.5428	-0.0062
707.7235	-0.002
707.9041	0.0035
708.0847	0.0021
708.2653	-0.0047
708.4459	-0.0037
708.6265	-0.0062
708.807	0.0013
708.9875	0.0038
709.168	-0.0018
709.3485	-0.0002
709.529	-0.0074
709.7095	-0.0068
709.8899	-0.0103
710.0703	0.0072
710.2507	-0.0025
710.4311	-0.0005
710.6115	0.0026
710.7918	-0.0025
710.9721	0.0039
711.1524	0.0008
711.3327	0.001
711.513	-0.005
711.6932	-0.0051
711.8735	0.0022
712.0537	0.0009
712.2339	0
712.4141	-0.0001
712.5942	0.0039
712.7744	0.0027
712.9545	0.0039
713.1346	0.0006
713.3147	0.0045
713.4947	-0.0014
713.6748	-0.0049
713.8548	-0.0031
714.0348	-0.0001
714.2148	-0.0046
714.3948	-0.0044
714.5748	-0.0078
714.7547	-0.007
714.9346	-0.0039
715.1145	-0.0065
715.2944	0.0006
715.4743	-0.0019
715.6541	-0.0011
715.834	-0.0039
716.0138	-0.0014
716.1936	-0.0004
716.3733	-0.0036
716.5531	-0.0057
716.7328	-0.0031
716.9126	0.0025
717.0923	0.001
717.2719	-0.01
717.4516	-0.0064
717.6312	0.0025
717.8109	0.004
717.9905	-0.0064
718.1701	-0.0039
718.3496	-0.0038
718.5292	-0.0026
718.7087	-0.0046
718.8882	-0.0013
719.0677	-0.0015
719.2472	-0.0027
719.4267	-0.0104
719.6061	-0.0141
719.7856	0.0023
719.965	-0.0109
720.1443	-0.0008
720.3237	-0.0024
720.5031	-0.0054
720.6824	-0.0026
720.8617	-0.0101
721.041	0.0007
721.2203	-0.0053
721.3995	0.0023
721.5788	-0.0128
721.758	-0.0042
721.9372	-0.0019
722.1164	-0.0085
722.2956	-0.0113
722.4747	-0.0004
722.6538	-0.012
722.8329	-0.0021
723.012	-0.002
723.1911	0.0006
723.3702	0.003
723.5492	0.0027
723.7282	-0.0041
723.9072	-0.0044
724.0862	-0.0003
724.2652	-0.0017
724.4441	-0.0067
724.623	0.0007
724.8019	-0.0004
724.9808	-0.0012
725.1597	0.0054
725.3385	0.0055
725.5174	-0.0034
725.6962	-0.0062
725.875	0.0033
726.0538	0.0094
726.2325	-0.0025
726.4112	-0.0043
726.59	-0.0024
726.7687	-0.002
726.9474	-0.0004
727.126	-0.0055
727.3047	-0.0031
727.4833	-0.0007
727.6619	-0.0074
727.8405	-0.0035
728.0191	0.0041
728.1976	-0.0048
728.3762	-0.0083
728.5547	-0.0054
728.7332	-0.003
728.9116	-0.0106
729.0901	-0.007
729.2686	-0.0079
729.447	-0.0039
729.6254	-0.0102
729.8038	-0.0085
729.9821	-0.0014
730.1605	-0.004
730.3388	-0.0017
730.5171	-0.0011
730.6954	-0.0017
730.8737	-0.0028
731.0519	-0.0024
731.2302	0.0026
731.4084	0.0064
731.5866	-0.0005
731.7648	0.005
731.9429	0.0029
732.1211	0.0089
732.2992	-0.0005
732.4773	0.0034
732.6554	-0.0054
732.8335	-0.0067
733.0115	-0.0044
733.1896	-0.0099
733.3676	-0.0062
733.5456	-0.0027
733.7235	-0.0074
733.9015	-0.0004
734.0794	0.0048
734.2574	0.0018
734.4353	-0.0033
734.6131	0.005
734.791	-0.0021
734.9689	-0.0056
735.1467	0.0004
735.3245	0.0046
735.5023	-0.0056
735.68	-0.0028
735.8578	-0.0018
736.0355	0.0081
736.2132	0.0027
736.3909	-0.0013
736.5686	-0.0001
736.7463	-0.0047
736.9239	-0.0042
737.1015	0.0018
737.2791	-0.005
737.4567	-0.0095
737.6343	-0.0012
737.8118	-0.0093
737.9894	-0.0072
738.1669	-0.0011
738.3444	0.0012
738.5218	0.003
738.6993	-0.0028
738.8767	0.0015
739.0541	-0.0041
739.2315	-0.0031
739.4089	0.0019
739.5863	-0.005
739.7636	-0.0034
739.9409	0.0002
740.1182	-0.0015
740.2955	0.0015
740.4728	-0.0013
740.65	-0.0025
740.8272	0.0065
741.0044	0.0014
741.1816	0.0024
741.3588	0.0067
741.5359	-0.0047
741.7131	0.005
741.8902	0.0022
742.0673	-0.0028
742.2444	-0.0023
742.4214	-0.005
742.5985	-0.0033
742.7755	-0.0027
742.9525	-0.0006
743.1295	-0.0011
743.3064	-0.0091
743.4834	-0.0003
743.6603	-0.0051
743.8372	0.0054
744.0141	-0.0047
744.191	-0.0014
744.3678	-0.0022
744.5446	0.0044
744.7215	-0.0011
744.8982	-0.0026
745.075	-0.0001
745.2518	-0.0005
745.4285	-0.0047
745.6052	0.0009
745.7819	-0
745.9586	0.0054
746.1353	-0.005
746.3119	0.0012
746.4885	-0.0054
746.6651	-0.0022
746.8417	-0.0051
747.0183	-0.0024
747.1948	-0.0032
747.3714	-0.0091
747.5479	0.0003
747.7244	-0.0007
747.9008	0.0034
748.0773	0.0108
748.2537	0.0042
748.4301	0.0036
748.6065	0.0032
748.7829	0.0047
748.9593	0.0042
749.1356	-0.0093
749.3119	0.0027
749.4882	0.007
749.6645	-0.004
749.8408	-0.0007
750.017	-0.0003
750.1933	-0.0029
750.3695	-0.0062
750.5457	-0.0036
750.7218	-0.0102
750.898	-0.0001
751.0741	-0.0105
751.2502	0.0002
751.4263	-0.0019
751.6024	-0.0051
751.7784	0.0034
751.9545	0.0015
752.1305	0.0074
752.3065	0
752.4825	-0.0009
752.6584	-0.0015
752.8344	0.0027
753.0103	-0.0002
753.1862	-0.001
753.3621	-0.0034
753.5379	-0.0071
753.7138	0.007
753.8896	-0.0035
754.0654	-0.0031
754.2412	-0.0081
754.417	-0.0023
754.5927	0.0003
754.7685	-0.0156
754.9442	-0.0061
755.1199	-0.0097
755.2956	-0.0052
755.4712	-0.0019
755.6469	-0.0104
755.8225	-0.0089
755.9981	-0.0067
756.1736	-0.0017
756.3492	-0.0113
756.5248	0.0037
756.7003	-0.0121
756.8758	-0.0107
757.0513	-0.0076
757.2267	-0.0054
757.4022	-0.0078
757.5776	-0.0091
757.753	-0.011
757.9284	-0.0133
758.1038	-0.004
758.2791	-0.0087
758.4545	-0.0056
758.6298	-0.0052
758.8051	-0.0072
758.9803	-0.0058
759.1556	-0.0042
759.3308	-0.0053
759.506	-0.0087
759.6812	-0.0087
759.8564	-0.0065
760.0316	-0.0115
760.2067	-0.003
760.3819	-0.0053
760.557	-0.0109
760.732	-0.0064
760.9071	-0.0167
761.0821	-0.01
761.2572	-0.0097
761.4322	-0.0077
761.6072	-0.0092
761.7821	-0.0059
761.9571	-0.0126
762.132	-0.0059
762.3069	-0.0027
762.4818	-0.0068
762.6567	-0.0099
762.8316	0.0031
763.0064	0.0008
763.1812	0.0044
763.356	0.0014
763.5308	-0.0031
763.7055	0.0069
763.8803	-0.0045
764.055	-0.0033
764.2297	0.0005
764.4044	-0.0058
764.579	0.0069
764.7537	0.0011
764.9283	-0.0091
765.1029	0.0026
765.2775	0.0009
765.4521	0.005
765.6266	-0.0018
765.8011	0.004
765.9756	0.0058
766.1501	0.0033
766.3246	-0.0004
766.4991	-0.0021
766.6735	-0.0054
766.8479	-0.0146
767.0223	0.0064
767.1967	-0.0085
767.371	-0.0032
767.5454	-0.0039
767.7197	-0.0096
767.894	0.0011
768.0683	-0.0057
768.2425	-0.0056
768.4168	-0.0071
768.591	-0.0015
768.7652	0.0013
768.9394	0.008
769.1135	0.0045
769.2877	0.0015
769.4618	0.0044
769.6359	0.0023
769.81	0.0016
769.984	-0.0028
770.1581	0.0035
770.3321	-0.0013
770.5061	-0.0021
770.6801	0.0033
770.8541	-0.0008
771.028	0.0015
771.202	0.0112
771.3759	-0.0012
771.5498	0.0021
771.7236	0.0026
771.8975	0.0015
772.0713	0.0089
772.2451	0.0024
772.4189	0.0028
772.5927	-0.0036
772.7665	-0.0013
772.9402	-0.0019
773.1139	0.0023
773.2876	0.0031
773.4613	-0.0045
773.635	-0.0016
773.8086	0.002
773.9822	-0.0002
774.1558	-0.0013
774.3294	0.0103
774.503	-0.0018
774.6765	-0.0052
774.8501	0.0043
775.0236	-0.013
775.1971	-0.0082
775.3705	-0.0006
775.544	0.0004
775.7174	-0.0007
775.8908	-0.007
776.0642	0.0007
776.2376	-0.0028
776.4109	-0.0095
776.5843	0.0013
776.7576	0.0021
776.9309	0.0055
777.1041	-0.0036
777.2774	0.0011
777.4506	0.002
777.6238	-0.0022
777.797	0.0053
777.9702	-0.0023
778.1434	-0.0067
778.3165	0.0058
778.4896	-0.0141
778.6627	-0.0057
778.8358	0.0027
779.0089	-0.0076
779.1819	0.0033
779.3549	-0.005
779.5279	-0.0022
779.7009	-0.0049
779.8739	-0.0032
780.0468	-0.012
780.2197	0.0001
780.3926	0.0031
780.5655	-0.0093
780.7384	-0.002
780.9112	-0.0081
781.0841	0.004
781.2569	0.0016
781.4297	-0.0013
781.6024	-0.0013
781.7752	-0.0081
781.9479	-0.0011
782.1206	-0.0026
782.2933	-0.0044
782.466	0.0032
782.6386	-0.0017
782.8113	-0.0156
782.9839	-0.012
783.1565	-0.0122
783.329	-0.001
783.5016	-0.0026
783.6741	-0.0005
783.8466	-0.008
784.0191	-0.005
784.1916	0.0072
784.3641	0.0039
784.5365	0.0087
784.7089	-0.001
784.8813	0.012
785.0537	0.006
785.2261	-0.0017
785.3984	-0.0038
785.5707	0.0025
785.743	0.004
785.9153	0.0077
786.0876	-0.0056
786.2598	0.0025
786.432	0.0064
786.6042	0.0043
786.7764	-0.0063
786.9486	0.0056
787.1207	-0.0105
787.2928	-0.0006
787.4649	-0.0061
787.637	0.0025
787.8091	-0.0029
787.9811	0.0101
788.1532	-0.0013
788.3252	-0.001
788.4972	-0.0021
788.6691	-0.0017
788.8411	0.0005
789.013	0.0004
789.1849	0.0019
789.3568	-0.0042
789.5287	-0.0095
789.7005	-0.0015
789.8723	-0.002
790.0442	-0.0098
790.2159	0.005
790.3877	-0.0114
790.5595	-0.004
790.7312	-0.0003
790.9029	0.0013
791.0746	-0.0094
791.2463	-0.0035
791.4179	-0.005
791.5896	0.0051
791.7612	-0.0029
791.9328	0.0046
792.1044	-0.0102
792.2759	0.0077
792.4474	-0.0069
792.619	-0.0041
792.7905	0.0004
792.9619	-0.0053
793.1334	-0.0065
793.3048	-0.0017
793.4762	0.0056
793.6476	-0.0184
793.819	0.0005
793.9904	-0.0128
794.1617	-0.0116
794.333	-0.005
794.5043	-0.0039
794.6756	0.0048
794.8469	0.0119
795.0181	0.0017
795.1893	0.0032
795.3605	-0.0043
795.5317	-0.0102
795.7029	-0.0086
795.874	-0.0006
796.0452	-0.0047
796.2163	-0.0028
796.3873	-0.0169
796.5584	-0.0075
796.7294	-0.0072
796.9005	-0.0105
797.0715	-0.0063
797.2425	-0.0067
797.4134	-0.0139
797.5844	-0.0086
797.7553	-0.0079
797.9262	-0.0164
798.0971	-0.0091
798.2679	-0.0085
798.4388	-0.0117
798.6096	-0.0147
798.7804	-0.0079
798.9512	-0.0127
799.122	-0.002
799.2927	-0.0033
799.4635	-0.0007
799.6342	-0.0127
799.8049	-0.0171
799.9755	-0.0052
800.1462	-0.0208
800.3168	-0.0087
800.4874	-0.0098
800.658	-0.0149
800.8286	-0.0087
800.9991	-0.0141
801.1696	-0.0238
801.3402	-0.0146
801.5106	-0.0207
801.6811	-0.0153
801.8516	-0.0109
802.022	-0.0241
802.1924	-0.0196
802.3628	-0.0143
802.5332	-0.0062
802.7035	-0.0104
802.8739	-0.0175
803.0442	-0.0148
803.2145	-0.009
803.3847	-0.0211
803.555	-0.017
803.7252	-0.0113
803.8954	-0.0173
804.0656	-0.0043
804.2358	-0.0092
804.4059	-0.0086
804.5761	-0.0064
804.7462	-0.0064
804.9163	-0.0073
805.0864	-0.0139
805.2564	-0.0155
805.4264	-0.014
805.5965	-0.0157
805.7665	-0.0124
805.9364	-0.0054
806.1064	-0.0002
806.2763	-0.0124
806.4462	-0.0064
806.6161	-0.0019
806.786	-0.0141
806.9559	0.0007
807.1257	-0.009
807.2955	-0.01
807.4653	-0.0037
807.6351	-0.0049
807.8048	0.0056
807.9746	-0.0129
808.1443	0.0058
808.314	-0.0015
808.4837	0.0049
808.6533	-0.0016
808.8229	0.0016
808.9926	0.0088
809.1622	-0.0045
809.3317	0.0026
809.5013	0.0042
809.6708	0.0045
809.8403	0.0113
810.0098	0.0166
810.1793	-0.0109
810.3488	0.0053
810.5182	-0.0066
810.6876	0.0057
810.857	-0.0197
811.0264	-0.0023
811.1958	0.0031
811.3651	-0.0081
811.5344	-0.004
811.7037	-0.0157
811.873	-0.0161
812.0422	-0.014
812.2115	-0.004
812.3807	-0.003
812.5499	-0.0044
812.7191	-0.0035
812.8882	0.0013
813.0574	-0.0053
813.2265	0.0079
813.3956	-0.0094
813.5646	0.001
813.7337	0.005
813.9027	0.0043
814.0718	-0.0088
814.2407	0.0128
814.4097	0.0005
814.5787	0.0036
814.7476	-0.0059
814.9165	0.0064
815.0854	-0.0069
815.2543	0.0023
815.4232	-0.0023
815.592	0.0027
815.7608	-0.0021
815.9296	0.0027
816.0984	0.0019
816.2671	-0.0075
816.4359	0.0011
816.6046	0.0092
816.7733	-0.0013
816.942	-0.009
817.1106	-0.0063
817.2793	-0.0024
817.4479	-0.0105
817.6165	-0.0053
817.785	0.0024
817.9536	-0.0134
818.1221	-0.0053
818.2906	-0.0171
818.4591	-0.0049
818.6276	0
818.7961	0.0046
818.9645	-0.0061
819.1329	-0.0025
819.3013	-0.0185
819.4697	-0.0094
819.638	-0.0237
819.8064	-0.0076
819.9747	0.0091
820.143	0.0081
820.3113	-0.0007
820.4795	0.0053
820.6477	-0.0021
820.816	-0.0034
820.9842	-0.0085
821.1523	-0.0133
821.3205	-0.0021
821.4886	0.008
821.6567	-0.0005
821.8248	-0.0081
821.9929	0.0004
822.1609	-0.0019
822.329	-0.0077
822.497	0.0004
822.665	-0.0337
822.833	-0.0235
823.0009	-0.0091
823.1688	-0.0074
823.3367	-0.0161
823.5046	0.0025
823.6725	-0.0096
823.8404	0.0064
824.0082	-0.0067
824.176	0.0033
824.3438	-0.0099
824.5116	0.0085
824.6793	-0.0084
824.847	-0.0142
825.0147	-0.0143
825.1824	-0.0128
825.3501	-0.0003
825.5177	-0.0347
825.6854	0.0138
825.853	-0.0089
826.0206	0.0014
826.1881	-0.0021
826.3557	0.0007
826.5232	0.0021
826.6907	-0.0087
826.8582	-0.0077
827.0257	-0.0158
827.1931	0.0108
827.3605	0.0036
827.528	-0.0029
827.6953	-0.0006
827.8627	0.0043
828.03	-0.0096
828.1974	0.0032
828.3647	0.012
828.532	0.0015
828.6992	-0.0017
828.8665	-0.0096
829.0337	-0.0077
829.2009	-0.0089
829.3681	-0.0004
829.5352	0.0102
829.7024	-0.0021
829.8695	-0.0192
830.0366	-0.0245
830.2037	0.0013
830.3707	0.0032
830.5378	-0.0028
830.7048	-0.0151
830.8718	-0.0044
831.0388	0.0073
831.2057	-0.0035
831.3727	-0.0287
831.5396	0.0066
831.7065	0.0075
831.8734	0.0016
832.0402	-0.0246
832.2071	0.0095
832.3739	-0.007
832.5407	-0.0119
832.7075	-0.0115
832.8742	0.0118
833.041	0.0138
833.2077	-0.0287
833.3744	0.0054
833.541	0.0076
833.7077	-0.0037
833.8743	0.0177
834.0409	0.0208
834.2075	0.0136
834.3741	-0.008
834.5407	0.0041
834.7072	0.0131
834.8737	0.0023
835.0402	-0.0193
835.2067	-0.0111
835.3731	-0.0084
835.5395	-0.0094
835.706	-0.0111
835.8723	-0.0024
836.0387	-0.0132
836.2051	-0.0168
836.3714	0.0157
836.5377	-0.0014
836.704	0.0042
836.8703	-0.0212
837.0365	0.0254
837.2027	-0.0065
837.3689	-0.0186
837.5351	0.0077
837.7013	0.0016
837.8674	-0.002
838.0335	-0.0093
838.1997	0.0013
838.3657	0.0094
838.5318	-0.0027
838.6978	-0.0162
838.8639	-0.0002
839.0299	-0.0192
839.1958	0.0102
839.3618	0.0034
839.5277	-0.0228
839.6937	-0.0118
839.8596	-0.0008
840.0254	-0.0017
840.1913	0.0011
840.3571	-0.0031
840.523	0.0069
840.6888	-0.0012
840.8545	-0.0068
841.0203	0.0051
841.186	-0.0131
841.3517	-0.0064
841.5174	0.0077
841.6831	0.0028
841.8488	0.0171
842.0144	0.0084
842.18	0.0047
842.3456	-0.0006
842.5112	0.0242
842.6767	-0.0206
842.8422	0.0126
843.0077	-0.0036
843.1732	-0.0227
843.3387	-0.0088
843.5042	-0.02
843.6696	0.0199
843.835	0
844.0004	0.0246
844.1657	-0.0172
844.3311	0.0067
844.4964	-0.0147
844.6617	0.0201
844.827	0.0027
844.9923	-0.0022
845.1575	0.0206
845.3227	-0.0164
845.4879	-0.0023
845.6531	0.0164
845.8183	-0.016
845.9834	-0.0324
846.1485	0.0341
846.3136	-0.0524
846.4787	0.0025
846.6438	0.0427
846.8088	0.0012
846.9738	0.0076
847.1388	0.0145
847.3038	0.0073
847.4687	-0.0063
847.6337	-0.0004
847.7986	0.0399
847.9635	0
848.1284	-0.0168
848.2932	0.0115
848.458	0.0111
848.6228	0.0295
848.7876	-0.032
848.9524	0.0208
849.1172	-0.0107
849.2819	0.0328
849.4466	-0.0189
849.6113	0.0152
849.7759	0.0011
849.9406	0.0006
850.1052	0.0284
850.2698	0.022
850.4344	0.0303
850.599	-0.0073
850.7635	0.0526
850.928	-0.0525
851.0925	0.0535
851.257	-0.0017
851.4215	0.0129
851.5859	0.0366
851.7503	0.0078
851.9147	0.0289
852.0791	-0.0129
852.2434	-0.0013
852.4078	0.0226
852.5721	-0.0394
852.7364	-0.0659
852.9007	0.0054
853.0649	-0.0509
853.2291	-0.0014
853.3934	0.0083
853.5575	-0.0114
853.7217	-0.0317
853.8859	-0.0028
854.05	0.0232
854.2141	-0.0269
854.3782	0.0102
854.5423	-0.0467
854.7063	0.0132
854.8703	0.0017
855.0343	0.0293
855.1983	0.007
855.3623	-0.0208
855.5262	0.0241
855.6901	0.0122
855.854	0.0174
856.0179	0.0475
856.1818	-0.0117
856.3456	-0.055
856.5094	-0.0182
856.6732	-0.0476
856.837	0.0001
857.0008	0.0299
857.1645	-0.0133
857.3282	-0.0309
857.4919	-0.0762
857.6556	0.1267
857.8192	0.0483
857.9828	0.0429
858.1465	0.0186
858.31	0.0234
858.4736	-0.0452
858.6372	0.0199
858.8007	-0.027
858.9642	-0.0252
859.1277	0.1023
859.2911	0.0837
859.4546	0.0452
859.618	-0.0071
859.7814	0.0439
859.9448	-0.0885
860.1081	-0.0367
860.2715	0.0641
860.4348	-0.0438
860.5981	-0.0226
860.7614	-0.0694
860.9246	0.0871
861.0879	0.0024
861.2511	0.0619
861.4143	-0.0951
861.5774	-0.0268
861.7406	-0.0035
861.9037	-0.0694
862.0668	0.0178
862.2299	0.0952
862.393	0.0727
862.556	0.0613
862.7191	0.0144
862.8821	-0.0443
863.0451	-0.0208
863.208	-0.0501
863.371	0.1868
863.5339	-0.0458
863.6968	-0.0145
863.8597	0.0002
864.0225	-0.1491
864.1854	0.0711
864.3482	-0.1
864.511	0.0176
864.6737	-0.0041
864.8365	-0.0746
864.9992	-0.059
865.1619	-0.0139
865.3246	-0.1166
865.4873	0.0503
865.65	0.0667
865.8126	0.0807
865.9752	-0.1428
866.1378	0.0661
866.3004	-0.0114
866.4629	-0.1889
866.6254	0.1094
866.7879	-0.1702
866.9504	0.0609
867.1129	0.0079
867.2753	0.0507
867.4377	-0.1223
867.6001	-0.1406
867.7625	0.4033
867.9249	-0.0414
868.0872	-0.1181
868.2495	-0.1216
868.4118	-0.0929
868.5741	-0.2377
868.7363	0.1615
868.8986	0.2074
869.0608	-0.0242
869.223	0.1133
869.3851	0.0255
869.5473	-0.1208
869.7094	0.3899
869.8715	0.2365
870.0336	0.0053
870.1957	-0.0567
870.3577	0.0418
870.5197	-0.2888
870.6817	-0.2098
870.8437	-0.2063
871.0057	-0
871.1676	-0.1272
871.3295	-0.2772
871.4914	0.1494
871.6533	-0.0686
871.8151	-0.1626
871.977	0.4397
872.1388	-0.1657
872.3006	-0.0919
872.4623	0.1499
872.6241	-0.0112
872.7858	0.0584
872.9475	-0.2497
873.1092	-0.2154
873.2709	-0.0562
873.4325	-0
873.5941	-0.016
873.7557	-0.1958
873.9173	-0.1324
874.0789	0.5449
874.2404	-0.0555
874.4019	-0.0853
874.5634	-0.083
874.7249	-0.304
874.8863	-0.1576
875.0478	-0.1874
875.2092	-0.2671
875.3706	-0.1284
875.5319	-0.2095
875.6933	0.0014
875.8546	-0.032
876.0159	-0.2072
876.1772	-0.2633
876.3385	-0.422
876.4997	0.1773
876.6609	-0.2097
876.8221	0.0861
876.9833	-0.455
877.1445	-0.0532
877.3056	0.1302
877.4667	-0.6122
877.6278	0.1763
877.7889	0.3287
877.9499	-0
878.111	0.338
878.272	0.2736
878.433	0.3649
878.5939	0.1882
878.7549	-0.1539
878.9158	0.0337
879.0767	0.2396
879.2376	0.2168
879.3984	-0
879.5593	-0
879.7201	0.2885
879.8809	0.0443
880.0417	0.0517
880.2024	-0.1332
880.3632	0.1579
880.5239	-0.0865
880.6846	-0.1368
880.8452	0.2203
881.0059	-0.3091
881.1665	-0
881.3271	-0.4217
881.4877	-0.2258
881.6483	-0
881.8088	-0.3872
881.9693	0.241
882.1298	0.241
882.2903	0.241
