Data from MonoPyChalIsomerACN10uM450nmA_Absorbance_13-11-15-092.txt Node
Date: Tue Jul 09 13:11:15 BST 2024
User: LASERRRRR
Spectrometer: FLMT03099
Trigger mode: 0
Integration Time (sec): 2.000000E-1
Scans to average: 1
Electric dark correction enabled: true
Nonlinearity correction enabled: false
Boxcar width: 0
XAxis mode: Wavelengths
Number of Pixels in Spectrum: 3648
>>>>>Begin Spectral Data<<<<<
179.3399	0.2504
179.5586	0.2504
179.7771	0.2504
179.9957	-0
180.2143	-0
180.4329	0.3628
180.6514	-0
180.8699	0.2171
181.0885	-0
181.307	-0
181.5255	-0.1377
181.744	-0
181.9625	0.2914
182.181	-0
182.3994	0.4337
182.6179	-0.5122
182.8363	-0.8286
183.0547	0.1479
183.2732	0.2604
183.4916	0.0107
183.71	-0.052
183.9284	-0.014
184.1467	0.0364
184.3651	0.1941
184.5835	0.0407
184.8018	0.1045
185.0201	0.12
185.2385	0.0531
185.4568	-0.032
185.6751	0.1719
185.8934	0.0197
186.1117	0.0583
186.3299	0.0786
186.5482	0.0981
186.7664	0.0173
186.9847	-0
187.2029	0.2185
187.4211	-0.0223
187.6393	-0.0112
187.8575	0.0813
188.0757	0.0494
188.2939	0.0527
188.512	0.1315
188.7302	0.1478
188.9483	0.0722
189.1665	0.0712
189.3846	0.1996
189.6027	0.1486
189.8208	0.107
190.0389	0.1488
190.257	0.1431
190.475	0.2168
190.6931	0.1598
190.9111	0.2192
191.1292	0.2805
191.3472	0.2731
191.5652	0.3413
191.7832	0.2829
192.0012	0.3475
192.2192	0.3609
192.4371	0.5307
192.6551	0.4761
192.873	0.3653
193.091	0.4454
193.3089	0.5354
193.5268	0.6389
193.7447	0.5178
193.9626	0.5092
194.1805	0.5402
194.3984	0.5814
194.6162	0.5954
194.8341	0.6135
195.0519	0.5692
195.2697	0.5606
195.4875	0.5471
195.7054	0.6343
195.9231	0.6014
196.1409	0.5957
196.3587	0.5774
196.5765	0.7434
196.7942	0.7699
197.012	0.6753
197.2297	0.7455
197.4474	0.7236
197.6651	0.6815
197.8828	0.6578
198.1005	0.7921
198.3182	0.7243
198.5358	0.758
198.7535	0.7802
198.9711	0.9182
199.1888	0.8354
199.4064	0.7073
199.624	0.8208
199.8416	0.7041
200.0592	0.8123
200.2767	0.7616
200.4943	0.738
200.7119	0.8347
200.9294	0.8474
201.1469	0.8954
201.3645	0.8213
201.582	1.003
201.7995	0.745
202.017	0.8988
202.2344	0.9255
202.4519	0.9449
202.6694	0.8847
202.8868	0.8948
203.1042	0.9323
203.3217	0.9483
203.5391	0.9827
203.7565	0.8638
203.9739	0.9122
204.1913	0.8251
204.4086	0.9039
204.626	0.9155
204.8433	0.9599
205.0607	0.9163
205.278	0.9423
205.4953	1.0792
205.7126	0.8976
205.9299	1.0021
206.1472	1.0223
206.3644	0.9181
206.5817	1.0435
206.7989	0.9972
207.0162	1.0578
207.2334	0.9945
207.4506	0.9575
207.6678	1.0468
207.885	1.1021
208.1022	1.1099
208.3194	1.0763
208.5365	1.0136
208.7537	1.0511
208.9708	1.0337
209.1879	1.1753
209.405	1.0214
209.6222	1.0272
209.8392	1.0363
210.0563	1.0205
210.2734	1.0819
210.4905	1.1783
210.7075	0.9927
210.9245	1.0209
211.1416	1.1148
211.3586	1.046
211.5756	1.0881
211.7926	1.0988
212.0096	1.0986
212.2265	1.0078
212.4435	1.0518
212.6604	1.05
212.8774	1.0285
213.0943	1.0057
213.3112	0.9779
213.5281	1.072
213.745	0.9521
213.9619	0.9754
214.1788	0.9317
214.3956	0.9258
214.6125	0.9129
214.8293	0.9019
215.0461	0.8843
215.2629	0.9093
215.4798	0.8652
215.6965	0.8348
215.9133	0.8414
216.1301	0.8355
216.3469	0.8228
216.5636	0.8172
216.7803	0.7644
216.9971	0.787
217.2138	0.735
217.4305	0.7112
217.6472	0.6938
217.8639	0.6412
218.0805	0.6056
218.2972	0.555
218.5138	0.5407
218.7305	0.4969
218.9471	0.504
219.1637	0.4503
219.3803	0.431
219.5969	0.3935
219.8135	0.3796
220.0301	0.3674
220.2466	0.3636
220.4632	0.316
220.6797	0.325
220.8962	0.3246
221.1127	0.2953
221.3292	0.3015
221.5457	0.2952
221.7622	0.3023
221.9787	0.2806
222.1951	0.2831
222.4116	0.2782
222.628	0.284
222.8444	0.278
223.0608	0.2814
223.2772	0.2692
223.4936	0.2677
223.71	0.2709
223.9264	0.2662
224.1427	0.2748
224.3591	0.2787
224.5754	0.2707
224.7917	0.2799
225.008	0.2871
225.2243	0.2746
225.4406	0.2921
225.6569	0.2814
225.8732	0.2992
226.0894	0.285
226.3057	0.2949
226.5219	0.2917
226.7381	0.2862
226.9543	0.2967
227.1705	0.2867
227.3867	0.3054
227.6029	0.3102
227.8191	0.2929
228.0352	0.3063
228.2513	0.3177
228.4675	0.3142
228.6836	0.3271
228.8997	0.3198
229.1158	0.3244
229.3319	0.3284
229.548	0.3321
229.764	0.3149
229.9801	0.3215
230.1961	0.3267
230.4121	0.3386
230.6282	0.333
230.8442	0.3451
231.0602	0.3511
231.2761	0.3512
231.4921	0.3543
231.7081	0.3552
231.924	0.3492
232.14	0.3704
232.3559	0.3597
232.5718	0.3669
232.7877	0.3639
233.0036	0.3592
233.2195	0.3566
233.4353	0.369
233.6512	0.3786
233.867	0.374
234.0829	0.3756
234.2987	0.3815
234.5145	0.3797
234.7303	0.3894
234.9461	0.4033
235.1619	0.3907
235.3776	0.3804
235.5934	0.3906
235.8091	0.3934
236.0249	0.3867
236.2406	0.3924
236.4563	0.3924
236.672	0.4021
236.8877	0.4003
237.1034	0.4106
237.319	0.4107
237.5347	0.4045
237.7503	0.4142
237.966	0.4174
238.1816	0.4192
238.3972	0.4083
238.6128	0.4241
238.8284	0.4113
239.0439	0.4174
239.2595	0.4284
239.475	0.4152
239.6906	0.4273
239.9061	0.401
240.1216	0.4186
240.3371	0.4212
240.5526	0.4196
240.7681	0.41
240.9836	0.4204
241.199	0.4128
241.4145	0.4084
241.6299	0.4139
241.8453	0.4006
242.0607	0.3893
242.2761	0.3997
242.4915	0.3771
242.7069	0.3777
242.9223	0.3573
243.1376	0.3676
243.353	0.3483
243.5683	0.3528
243.7836	0.3404
243.9989	0.3304
244.2142	0.3305
244.4295	0.3266
244.6448	0.3212
244.86	0.3131
245.0753	0.2917
245.2905	0.2981
245.5057	0.2917
245.721	0.2972
245.9362	0.2751
246.1514	0.2802
246.3665	0.28
246.5817	0.2535
246.7969	0.2648
247.012	0.2613
247.2271	0.2622
247.4423	0.2652
247.6574	0.2627
247.8725	0.2456
248.0876	0.2418
248.3026	0.2455
248.5177	0.2387
248.7328	0.2284
248.9478	0.235
249.1628	0.2347
249.3779	0.2324
249.5929	0.2237
249.8079	0.2279
250.0228	0.2238
250.2378	0.2236
250.4528	0.2086
250.6677	0.2243
250.8827	0.2068
251.0976	0.2073
251.3125	0.2139
251.5274	0.1946
251.7423	0.2023
251.9572	0.2111
252.172	0.2133
252.3869	0.2041
252.6017	0.2065
252.8166	0.1963
253.0314	0.2007
253.2462	0.2067
253.461	0.2084
253.6758	0.1932
253.8906	0.2039
254.1053	0.2041
254.3201	0.2044
254.5348	0.1958
254.7496	0.1969
254.9643	0.1937
255.179	0.1976
255.3937	0.2058
255.6083	0.1965
255.823	0.1958
256.0377	0.1941
256.2523	0.1982
256.467	0.1982
256.6816	0.1945
256.8962	0.1988
257.1108	0.199
257.3254	0.1948
257.54	0.1978
257.7545	0.1988
257.9691	0.1979
258.1836	0.1976
258.3981	0.2043
258.6127	0.1985
258.8272	0.1958
259.0417	0.1956
259.2561	0.1918
259.4706	0.1942
259.6851	0.1965
259.8995	0.1859
260.114	0.1869
260.3284	0.1975
260.5428	0.1922
260.7572	0.2014
260.9716	0.2027
261.186	0.2019
261.4003	0.2087
261.6147	0.1947
261.829	0.1964
262.0433	0.1979
262.2577	0.1968
262.472	0.1961
262.6863	0.1919
262.9005	0.1892
263.1148	0.1964
263.3291	0.1855
263.5433	0.1918
263.7576	0.1886
263.9718	0.1872
264.186	0.1844
264.4002	0.1904
264.6144	0.1819
264.8286	0.1798
265.0427	0.1732
265.2569	0.1821
265.471	0.1764
265.6851	0.1783
265.8993	0.17
266.1134	0.1722
266.3275	0.1793
266.5415	0.1665
266.7556	0.183
266.9697	0.1773
267.1837	0.1779
267.3978	0.1816
267.6118	0.185
267.8258	0.1887
268.0398	0.184
268.2538	0.1866
268.4677	0.1912
268.6817	0.1925
268.8957	0.1851
269.1096	0.1763
269.3235	0.1692
269.5374	0.17
269.7514	0.1598
269.9652	0.1684
270.1791	0.1525
270.393	0.1447
270.6068	0.1424
270.8207	0.1424
271.0345	0.1541
271.2483	0.1457
271.4622	0.1532
271.676	0.1451
271.8897	0.1376
272.1035	0.1314
272.3173	0.145
272.531	0.1364
272.7448	0.1414
272.9585	0.1356
273.1722	0.1333
273.3859	0.1417
273.5996	0.1245
273.8133	0.1321
274.0269	0.1382
274.2406	0.1315
274.4542	0.1331
274.6679	0.139
274.8815	0.1373
275.0951	0.136
275.3087	0.1319
275.5223	0.1341
275.7358	0.129
275.9494	0.1418
276.1629	0.1377
276.3765	0.132
276.59	0.1395
276.8035	0.1382
277.017	0.1317
277.2305	0.1328
277.444	0.1321
277.6574	0.1392
277.8709	0.1398
278.0843	0.1382
278.2978	0.143
278.5112	0.141
278.7246	0.1364
278.938	0.142
279.1513	0.1427
279.3647	0.1442
279.5781	0.1369
279.7914	0.1488
280.0047	0.1398
280.2181	0.1401
280.4314	0.1458
280.6447	0.1459
280.8579	0.1453
281.0712	0.1474
281.2845	0.1482
281.4977	0.1448
281.711	0.1474
281.9242	0.1442
282.1374	0.1482
282.3506	0.1383
282.5638	0.1423
282.7769	0.1543
282.9901	0.1431
283.2033	0.1533
283.4164	0.1514
283.6295	0.1537
283.8426	0.1543
284.0557	0.1521
284.2688	0.1437
284.4819	0.1514
284.695	0.1537
284.908	0.1526
285.1211	0.1584
285.3341	0.1479
285.5471	0.1614
285.7601	0.1478
285.9731	0.1471
286.1861	0.1609
286.3991	0.1493
286.612	0.1583
286.825	0.1598
287.0379	0.1559
287.2508	0.1561
287.4637	0.1633
287.6766	0.1578
287.8895	0.1699
288.1024	0.1645
288.3152	0.1617
288.5281	0.1597
288.7409	0.1631
288.9538	0.161
289.1666	0.1591
289.3794	0.1628
289.5922	0.1612
289.8049	0.1591
290.0177	0.1677
290.2304	0.1595
290.4432	0.1549
290.6559	0.1633
290.8686	0.1597
291.0813	0.1668
291.294	0.1719
291.5067	0.1618
291.7194	0.1638
291.932	0.1661
292.1447	0.1639
292.3573	0.1577
292.5699	0.1731
292.7825	0.1648
292.9951	0.1692
293.2077	0.1594
293.4203	0.1568
293.6328	0.1713
293.8454	0.1613
294.0579	0.1687
294.2704	0.1678
294.4829	0.1652
294.6954	0.1694
294.9079	0.1689
295.1204	0.1633
295.3328	0.1704
295.5453	0.1571
295.7577	0.161
295.9701	0.1635
296.1825	0.1693
296.3949	0.1562
296.6073	0.1721
296.8197	0.1662
297.0321	0.167
297.2444	0.1606
297.4567	0.1652
297.6691	0.1615
297.8814	0.1636
298.0937	0.1669
298.306	0.1673
298.5182	0.1492
298.7305	0.1659
298.9428	0.1609
299.155	0.1617
299.3672	0.163
299.5794	0.164
299.7916	0.1707
300.0038	0.1616
300.216	0.1696
300.4282	0.1647
300.6403	0.1595
300.8525	0.1641
301.0646	0.1643
301.2767	0.163
301.4888	0.151
301.7009	0.163
301.913	0.1698
302.125	0.1619
302.3371	0.168
302.5491	0.1624
302.7612	0.167
302.9732	0.1672
303.1852	0.1661
303.3972	0.1646
303.6092	0.1603
303.8211	0.1675
304.0331	0.1536
304.245	0.1637
304.457	0.1649
304.6689	0.1638
304.8808	0.157
305.0927	0.1545
305.3046	0.1508
305.5164	0.1552
305.7283	0.1492
305.9401	0.1551
306.152	0.153
306.3638	0.1557
306.5756	0.1422
306.7874	0.1489
306.9992	0.1426
307.2109	0.1408
307.4227	0.1449
307.6344	0.1363
307.8462	0.1323
308.0579	0.1392
308.2696	0.1329
308.4813	0.1332
308.693	0.132
308.9046	0.1235
309.1163	0.121
309.328	0.1177
309.5396	0.123
309.7512	0.1232
309.9628	0.1234
310.1744	0.1251
310.386	0.1114
310.5976	0.1138
310.8091	0.1189
311.0207	0.1171
311.2322	0.11
311.4437	0.118
311.6552	0.114
311.8667	0.109
312.0782	0.1054
312.2897	0.1048
312.5012	0.1039
312.7126	0.0957
312.924	0.1018
313.1355	0.1017
313.3469	0.1052
313.5583	0.1
313.7696	0.0985
313.981	0.0947
314.1924	0.0927
314.4037	0.0966
314.6151	0.0923
314.8264	0.0952
315.0377	0.098
315.249	0.0994
315.4603	0.0926
315.6716	0.097
315.8828	0.0949
316.0941	0.091
316.3053	0.0904
316.5165	0.0924
316.7277	0.0935
316.9389	0.0917
317.1501	0.086
317.3613	0.0948
317.5724	0.086
317.7836	0.0926
317.9947	0.0927
318.2058	0.0899
318.417	0.0881
318.6281	0.0935
318.8391	0.0892
319.0502	0.0856
319.2613	0.0909
319.4723	0.0923
319.6834	0.0874
319.8944	0.0953
320.1054	0.0893
320.3164	0.0919
320.5274	0.0955
320.7383	0.0863
320.9493	0.0899
321.1602	0.0937
321.3712	0.0928
321.5821	0.0952
321.793	0.0884
322.0039	0.093
322.2148	0.0905
322.4257	0.0918
322.6365	0.0863
322.8474	0.0917
323.0582	0.1064
323.269	0.0874
323.4798	0.0973
323.6906	0.0961
323.9014	0.0934
324.1122	0.0888
324.3229	0.0929
324.5337	0.0781
324.7444	0.0894
324.9551	0.0918
325.1658	0.0871
325.3765	0.0868
325.5872	0.0881
325.7979	0.0983
326.0085	0.1005
326.2192	0.0993
326.4298	0.107
326.6404	0.0947
326.851	0.091
327.0616	0.0929
327.2722	0.0975
327.4828	0.0892
327.6933	0.1037
327.9039	0.0979
328.1144	0.1007
328.3249	0.0955
328.5354	0.098
328.7459	0.0926
328.9564	0.0911
329.1669	0.0985
329.3773	0.0983
329.5878	0.0971
329.7982	0.0985
330.0086	0.1027
330.219	0.1001
330.4294	0.0948
330.6398	0.1004
330.8502	0.0963
331.0605	0.0969
331.2708	0.1019
331.4812	0.0923
331.6915	0.0973
331.9018	0.0975
332.1121	0.1034
332.3224	0.0972
332.5326	0.0885
332.7429	0.0999
332.9531	0.0983
333.1633	0.1087
333.3735	0.1061
333.5837	0.0945
333.7939	0.0987
334.0041	0.1022
334.2143	0.0972
334.4244	0.0917
334.6346	0.0967
334.8447	0.1073
335.0548	0.0997
335.2649	0.0907
335.475	0.0967
335.685	0.108
335.8951	0.0992
336.1051	0.0907
336.3152	0.0963
336.5252	0.0966
336.7352	0.1025
336.9452	0.0965
337.1552	0.104
337.3652	0.106
337.5751	0.0994
337.7851	0.0923
337.995	0.1073
338.2049	0.1045
338.4148	0.1008
338.6247	0.1004
338.8346	0.1043
339.0445	0.1079
339.2543	0.1063
339.4642	0.1035
339.674	0.1071
339.8838	0.1046
340.0936	0.1058
340.3034	0.1191
340.5132	0.1106
340.7229	0.1149
340.9327	0.1112
341.1424	0.1159
341.3522	0.1038
341.5619	0.122
341.7716	0.1221
341.9813	0.1154
342.1909	0.1178
342.4006	0.1098
342.6102	0.1086
342.8199	0.1211
343.0295	0.1096
343.2391	0.1146
343.4487	0.1165
343.6583	0.1148
343.8679	0.1153
344.0774	0.12
344.287	0.1274
344.4965	0.1148
344.706	0.125
344.9155	0.1184
345.125	0.1247
345.3345	0.1201
345.544	0.1149
345.7534	0.1186
345.9629	0.1232
346.1723	0.1308
346.3817	0.124
346.5911	0.1249
346.8005	0.1227
347.0099	0.1216
347.2193	0.126
347.4286	0.1325
347.638	0.1341
347.8473	0.1261
348.0566	0.1303
348.2659	0.1236
348.4752	0.1328
348.6845	0.1319
348.8937	0.131
349.103	0.1265
349.3122	0.1248
349.5214	0.1349
349.7306	0.126
349.9398	0.1375
350.149	0.1248
350.3582	0.1289
350.5674	0.1402
350.7765	0.1313
350.9856	0.1332
351.1948	0.1464
351.4039	0.1291
351.613	0.1339
351.822	0.1371
352.0311	0.1342
352.2402	0.1411
352.4492	0.1417
352.6582	0.142
352.8672	0.1451
353.0762	0.1435
353.2852	0.1475
353.4942	0.1562
353.7032	0.1488
353.9121	0.1458
354.1211	0.1412
354.33	0.1392
354.5389	0.146
354.7478	0.1514
354.9567	0.1448
355.1655	0.1511
355.3744	0.1475
355.5833	0.1475
355.7921	0.1459
356.0009	0.1507
356.2097	0.153
356.4185	0.1521
356.6273	0.1571
356.8361	0.1544
357.0448	0.1541
357.2536	0.154
357.4623	0.1517
357.671	0.1583
357.8797	0.1667
358.0884	0.1681
358.2971	0.165
358.5057	0.1635
358.7144	0.1724
358.923	0.1747
359.1316	0.1673
359.3402	0.1714
359.5488	0.1707
359.7574	0.1776
359.966	0.1722
360.1746	0.1749
360.3831	0.1769
360.5916	0.1793
360.8002	0.1815
361.0087	0.1792
361.2172	0.1792
361.4256	0.1832
361.6341	0.1776
361.8426	0.1794
362.051	0.1635
362.2594	0.1792
362.4678	0.1821
362.6762	0.1807
362.8846	0.1881
363.093	0.1786
363.3014	0.1874
363.5097	0.1835
363.718	0.1977
363.9264	0.1881
364.1347	0.1931
364.343	0.1858
364.5513	0.1887
364.7595	0.1934
364.9678	0.1973
365.176	0.2023
365.3842	0.1907
365.5925	0.2011
365.8007	0.1953
366.0089	0.2074
366.217	0.1988
366.4252	0.2052
366.6333	0.1941
366.8415	0.2055
367.0496	0.2093
367.2577	0.2049
367.4658	0.2123
367.6739	0.2088
367.882	0.2101
368.09	0.2072
368.2981	0.2136
368.5061	0.2134
368.7141	0.2065
368.9221	0.2086
369.1301	0.225
369.3381	0.2204
369.5461	0.2198
369.754	0.2228
369.962	0.2201
370.1699	0.223
370.3778	0.2184
370.5857	0.2224
370.7936	0.2155
371.0015	0.2179
371.2093	0.2164
371.4172	0.2315
371.625	0.2296
371.8328	0.2265
372.0406	0.2358
372.2484	0.2302
372.4562	0.2278
372.664	0.2317
372.8717	0.2208
373.0795	0.2284
373.2872	0.2273
373.4949	0.2274
373.7026	0.2369
373.9103	0.2278
374.118	0.2357
374.3256	0.2266
374.5333	0.2338
374.7409	0.242
374.9485	0.2289
375.1561	0.2406
375.3637	0.2342
375.5713	0.2425
375.7789	0.238
375.9864	0.2378
376.194	0.2481
376.4015	0.244
376.609	0.2484
376.8165	0.2347
377.024	0.2404
377.2315	0.2427
377.4389	0.244
377.6464	0.25
377.8538	0.2508
378.0612	0.2426
378.2686	0.2445
378.476	0.2424
378.6834	0.2529
378.8908	0.2677
379.0981	0.2525
379.3055	0.2575
379.5128	0.2505
379.7201	0.2467
379.9274	0.2637
380.1347	0.2568
380.342	0.2559
380.5492	0.2591
380.7565	0.2544
380.9637	0.2688
381.1709	0.2566
381.3781	0.2512
381.5853	0.2656
381.7925	0.2736
381.9997	0.2595
382.2068	0.2568
382.4139	0.2575
382.6211	0.2618
382.8282	0.2632
383.0353	0.2572
383.2424	0.2568
383.4494	0.269
383.6565	0.2655
383.8635	0.2741
384.0706	0.262
384.2776	0.2698
384.4846	0.2693
384.6916	0.2684
384.8986	0.265
385.1055	0.2806
385.3125	0.2756
385.5194	0.2816
385.7263	0.2765
385.9333	0.2682
386.1402	0.2764
386.347	0.2669
386.5539	0.2711
386.7608	0.2666
386.9676	0.2762
387.1744	0.2703
387.3813	0.2612
387.5881	0.2609
387.7948	0.2703
388.0016	0.2609
388.2084	0.286
388.4151	0.2628
388.6219	0.2767
388.8286	0.2762
389.0353	0.2668
389.242	0.2723
389.4487	0.2624
389.6553	0.2619
389.862	0.2601
390.0686	0.2546
390.2753	0.2575
390.4819	0.255
390.6885	0.259
390.8951	0.2637
391.1016	0.2638
391.3082	0.2669
391.5147	0.2559
391.7213	0.2521
391.9278	0.246
392.1343	0.2603
392.3408	0.241
392.5473	0.2501
392.7537	0.2511
392.9602	0.2401
393.1666	0.2502
393.373	0.2476
393.5794	0.2492
393.7858	0.2345
393.9922	0.2384
394.1986	0.2385
394.4049	0.2437
394.6113	0.2452
394.8176	0.2252
395.0239	0.2377
395.2302	0.2336
395.4365	0.2343
395.6428	0.2339
395.8491	0.2406
396.0553	0.2319
396.2615	0.2365
396.4678	0.2331
396.674	0.2295
396.8802	0.2294
397.0863	0.2304
397.2925	0.2267
397.4987	0.23
397.7048	0.2204
397.9109	0.2345
398.117	0.232
398.3231	0.2344
398.5292	0.2145
398.7353	0.2364
398.9413	0.2217
399.1474	0.2307
399.3534	0.2095
399.5594	0.2255
399.7654	0.2362
399.9714	0.2303
400.1774	0.2243
400.3833	0.2308
400.5893	0.228
400.7952	0.2107
401.0011	0.2211
401.207	0.2176
401.4129	0.2156
401.6188	0.2238
401.8247	0.2253
402.0305	0.2279
402.2364	0.2341
402.4422	0.2196
402.648	0.2306
402.8538	0.2293
403.0596	0.2089
403.2654	0.2233
403.4711	0.2214
403.6768	0.2395
403.8826	0.2258
404.0883	0.2251
404.294	0.2258
404.4997	0.2364
404.7054	0.2237
404.911	0.2242
405.1167	0.2295
405.3223	0.2339
405.5279	0.228
405.7335	0.2251
405.9391	0.2276
406.1447	0.2209
406.3502	0.2226
406.5558	0.2284
406.7613	0.2149
406.9668	0.2275
407.1724	0.2167
407.3778	0.2395
407.5833	0.2171
407.7888	0.2339
407.9942	0.2257
408.1997	0.2261
408.4051	0.2303
408.6105	0.2311
408.8159	0.2344
409.0213	0.2314
409.2267	0.2254
409.432	0.2288
409.6374	0.2292
409.8427	0.2304
410.048	0.217
410.2533	0.2251
410.4586	0.2336
410.6639	0.213
410.8691	0.2163
411.0744	0.2274
411.2796	0.2265
411.4848	0.2137
411.69	0.2268
411.8952	0.2183
412.1004	0.2077
412.3056	0.2295
412.5107	0.228
412.7158	0.2204
412.921	0.2228
413.1261	0.2212
413.3312	0.2312
413.5362	0.2166
413.7413	0.2132
413.9464	0.2272
414.1514	0.2145
414.3564	0.2349
414.5614	0.2277
414.7664	0.2264
414.9714	0.2169
415.1764	0.2234
415.3813	0.2153
415.5863	0.224
415.7912	0.2112
415.9961	0.2148
416.201	0.2225
416.4059	0.2216
416.6108	0.2274
416.8156	0.2182
417.0205	0.2203
417.2253	0.2062
417.4301	0.2243
417.6349	0.2209
417.8397	0.2143
418.0445	0.2163
418.2492	0.2232
418.454	0.2102
418.6587	0.2145
418.8634	0.2113
419.0681	0.2148
419.2728	0.2212
419.4775	0.206
419.6822	0.2153
419.8868	0.2077
420.0915	0.2154
420.2961	0.2153
420.5007	0.2059
420.7053	0.2023
420.9099	0.2042
421.1144	0.2123
421.319	0.1997
421.5235	0.2157
421.728	0.1961
421.9325	0.1987
422.137	0.2019
422.3415	0.2055
422.546	0.2031
422.7504	0.202
422.9549	0.2034
423.1593	0.1951
423.3637	0.1905
423.5681	0.2094
423.7725	0.1948
423.9769	0.2017
424.1812	0.1932
424.3856	0.2035
424.5899	0.1969
424.7942	0.1861
424.9985	0.1919
425.2028	0.1883
425.4071	0.1933
425.6113	0.1876
425.8156	0.1898
426.0198	0.2027
426.224	0.1706
426.4282	0.1794
426.6324	0.1831
426.8366	0.1815
427.0407	0.1734
427.2449	0.1951
427.449	0.1708
427.6531	0.1738
427.8572	0.166
428.0613	0.1669
428.2654	0.1745
428.4694	0.1711
428.6735	0.1845
428.8775	0.1629
429.0815	0.1609
429.2855	0.1682
429.4895	0.1504
429.6935	0.1635
429.8975	0.1536
430.1014	0.1626
430.3053	0.1571
430.5093	0.1624
430.7132	0.1571
430.9171	0.1612
431.1209	0.1601
431.3248	0.1529
431.5286	0.1575
431.7325	0.1487
431.9363	0.1539
432.1401	0.1336
432.3439	0.1373
432.5477	0.1478
432.7514	0.1512
432.9552	0.1324
433.1589	0.1295
433.3627	0.1354
433.5664	0.1323
433.7701	0.1218
433.9737	0.1172
434.1774	0.1214
434.3811	0.1359
434.5847	0.1197
434.7883	0.122
434.9919	0.1182
435.1955	0.1177
435.3991	0.1083
435.6027	0.1143
435.8062	0.1024
436.0098	0.1163
436.2133	0.1056
436.4168	0.1094
436.6203	0.1068
436.8238	0.1117
437.0272	0.0998
437.2307	0.1008
437.4341	0.0928
437.6375	0.1124
437.841	0.1005
438.0443	0.0961
438.2477	0.0919
438.4511	0.0973
438.6545	0.0793
438.8578	0.095
439.0611	0.0817
439.2644	0.1047
439.4677	0.0934
439.671	0.0885
439.8743	0.095
440.0775	0.0826
440.2808	0.0751
440.484	0.0769
440.6872	0.0719
440.8904	0.0722
441.0936	0.0725
441.2967	0.0778
441.4999	0.073
441.703	0.0633
441.9062	0.0678
442.1093	0.0681
442.3124	0.0629
442.5155	0.072
442.7185	0.0521
442.9216	0.0639
443.1246	0.0612
443.3276	0.0658
443.5307	0.0577
443.7337	0.0675
443.9366	0.0644
444.1396	0.0522
444.3426	0.0505
444.5455	0.0534
444.7484	0.0484
444.9513	0.0544
445.1542	0.0575
445.3571	0.0441
445.56	0.0421
445.7628	0.0375
445.9657	0.0551
446.1685	0.0537
446.3713	0.0477
446.5741	0.0476
446.7769	0.0454
446.9797	0.0452
447.1824	0.0419
447.3852	0.0433
447.5879	0.0445
447.7906	0.0456
447.9933	0.0349
448.196	0.0454
448.3986	0.0323
448.6013	0.0327
448.8039	0.0367
449.0066	0.0272
449.2092	0.0361
449.4118	0.0348
449.6143	0.0298
449.8169	0.0184
450.0195	0.0236
450.222	0.0203
450.4245	0.0235
450.627	0.03
450.8295	0.0191
451.032	0.0328
451.2345	0.0164
451.4369	0.0322
451.6394	0.0162
451.8418	0.0131
452.0442	0.0137
452.2466	0.0217
452.449	0.0231
452.6513	0.0197
452.8537	0.0166
453.056	0.0115
453.2583	0.0154
453.4607	0.029
453.663	0.0212
453.8652	0.0225
454.0675	0.0184
454.2697	0.0149
454.472	0.02
454.6742	0.0195
454.8764	0.0201
455.0786	0.0244
455.2808	0.0122
455.4829	0.0091
455.6851	0.0086
455.8872	0.0074
456.0893	0.0086
456.2915	0.0096
456.4935	0.0085
456.6956	0.0066
456.8977	0.0129
457.0997	0.0041
457.3018	0.0113
457.5038	0.0044
457.7058	0.0078
457.9078	0.0117
458.1098	0.0039
458.3117	0.0044
458.5137	0.0048
458.7156	0.0129
458.9175	0.0028
459.1194	0.0113
459.3213	0.0133
459.5232	0.0013
459.725	0.0002
459.9269	0.0082
460.1287	0.0082
460.3305	0.0034
460.5323	0.0184
460.7341	0.0036
460.9359	0.0052
461.1376	0.0048
461.3394	0.0146
461.5411	0.0112
461.7428	-0.0074
461.9445	0.0066
462.1462	0.0078
462.3479	0.0021
462.5495	0.0074
462.7512	-0.0056
462.9528	-0.0011
463.1544	0.0058
463.356	-0.0012
463.5576	-0.001
463.7592	-0.0035
463.9607	0.0081
464.1623	0.0046
464.3638	0.0007
464.5653	0.0053
464.7668	-0.0014
464.9683	0.0092
465.1697	0.0062
465.3712	0.0022
465.5726	0.001
465.7741	-0.0088
465.9755	-0.0035
466.1769	0.0002
466.3782	-0.0055
466.5796	-0.0059
466.7809	-0.0055
466.9823	-0.0064
467.1836	0.0082
467.3849	0.0033
467.5862	-0.0021
467.7875	-0.0042
467.9887	-0.0035
468.19	-0.0053
468.3912	0.0004
468.5924	-0.0071
468.7936	-0.0103
468.9948	0.0204
469.196	-0.0091
469.3972	-0.0045
469.5983	0.0144
469.7994	-0.0045
470.0006	-0.004
470.2017	-0.0059
470.4027	-0.0063
470.6038	-0.0019
470.8049	-0.0105
471.0059	-0.0011
471.2069	0.0105
471.408	0.0012
471.6089	-0.0037
471.8099	-0.0044
472.0109	-0.0022
472.2119	-0.0141
472.4128	-0.0053
472.6137	-0.0086
472.8146	-0.014
473.0155	-0.0128
473.2164	-0.022
473.4173	-0.0081
473.6181	0.001
473.819	-0.0036
474.0198	0.0006
474.2206	-0.0081
474.4214	-0.006
474.6222	-0.0013
474.8229	-0.001
475.0237	-0.0041
475.2244	0.0005
475.4251	-0.0049
475.6258	0.0065
475.8265	-0.0009
476.0272	-0.0011
476.2278	-0.0025
476.4285	0.0007
476.6291	-0.005
476.8297	-0.0081
477.0303	-0.011
477.2309	0.0058
477.4315	0.0002
477.632	0.0008
477.8326	-0.0037
478.0331	-0.0047
478.2336	0.0011
478.4341	-0.0115
478.6346	0.0058
478.8351	-0.0118
479.0355	-0.0118
479.236	-0.0041
479.4364	-0.0059
479.6368	0.0017
479.8372	-0.0076
480.0376	-0.003
480.2379	-0.0063
480.4383	0.0007
480.6386	-0.0106
480.8389	-0.01
481.0392	-0.0173
481.2395	-0.0068
481.4398	0.0032
481.6401	-0.0092
481.8403	-0.0029
482.0405	-0.0111
482.2408	-0.0018
482.441	-0.005
482.6411	0.0007
482.8413	-0.0118
483.0415	-0.0082
483.2416	-0.0003
483.4417	-0.0081
483.6419	-0.0081
483.8419	-0.0059
484.042	-0.004
484.2421	0.003
484.4422	-0.0126
484.6422	-0.0116
484.8422	-0.0077
485.0422	-0.0074
485.2422	0.0011
485.4422	0.001
485.6422	-0.0033
485.8421	-0.0036
486.042	-0.0023
486.242	-0.0016
486.4419	-0.0085
486.6417	-0.0057
486.8416	-0.0029
487.0415	-0.0039
487.2413	-0.0103
487.4411	0.0014
487.641	-0.0012
487.8408	-0.01
488.0405	-0.0066
488.2403	0.002
488.4401	-0.0127
488.6398	-0.0092
488.8395	-0.0041
489.0392	-0.008
489.2389	-0.0051
489.4386	-0.0098
489.6383	-0.0069
489.8379	-0.0032
490.0376	-0.0065
490.2372	0
490.4368	-0.0152
490.6364	-0.0013
490.836	-0.0098
491.0355	-0.0052
491.2351	-0.0057
491.4346	-0.005
491.6341	-0.0062
491.8336	-0.0133
492.0331	-0.0051
492.2326	-0.0114
492.432	-0.0048
492.6315	-0.0077
492.8309	-0.0114
493.0303	-0.0071
493.2297	-0.0024
493.4291	-0.0114
493.6284	0.0006
493.8278	-0.0032
494.0271	-0.0057
494.2264	-0.0069
494.4257	-0.0002
494.625	-0.0076
494.8243	-0.0077
495.0236	-0.0126
495.2228	-0.0081
495.422	-0.0061
495.6213	-0.0103
495.8205	-0.0004
496.0196	-0.0102
496.2188	0.002
496.418	-0.0036
496.6171	-0.0021
496.8162	-0.0077
497.0153	-0.0048
497.2144	-0.0023
497.4135	-0.0027
497.6126	-0.0059
497.8116	0.0033
498.0107	-0.004
498.2097	-0.0051
498.4087	-0.0041
498.6077	-0.0052
498.8067	-0.0087
499.0056	0.003
499.2046	-0.0025
499.4035	-0.0069
499.6024	-0.0077
499.8013	0.0057
500.0002	-0.0066
500.199	-0.0078
500.3979	-0.0036
500.5967	-0.0096
500.7956	-0.0118
500.9944	-0.0039
501.1932	-0.0043
501.3919	-0.0103
501.5907	-0.0066
501.7895	-0.0014
501.9882	-0.0156
502.1869	-0.0063
502.3856	-0.0034
502.5843	-0.0102
502.783	-0.0074
502.9816	-0.0113
503.1803	-0.0025
503.3789	-0.0027
503.5775	-0.0057
503.7761	-0.0091
503.9747	-0.0087
504.1732	-0.004
504.3718	-0.0052
504.5703	-0.0042
504.7689	0.0033
504.9674	-0.0025
505.1658	-0.0062
505.3643	-0.0003
505.5628	0.0071
505.7612	-0.0112
505.9597	-0.007
506.1581	-0.0098
506.3565	-0.0009
506.5549	-0.0092
506.7532	-0.0087
506.9516	0.0014
507.1499	-0.009
507.3482	-0.0098
507.5465	-0.0063
507.7448	-0.0056
507.9431	-0.0051
508.1414	-0.0139
508.3396	-0.0047
508.5379	-0.0058
508.7361	-0.0011
508.9343	-0.0142
509.1325	-0.0008
509.3306	0
509.5288	0.0006
509.7269	-0.0137
509.9251	-0.0018
510.1232	-0.0025
510.3213	-0.0114
510.5193	-0.0088
510.7174	0.0033
510.9154	-0.0006
511.1135	-0.0024
511.3115	-0.0037
511.5095	-0.0101
511.7075	-0.007
511.9055	-0.0049
512.1034	-0.0037
512.3014	-0.0061
512.4993	-0.0054
512.6972	-0.0069
512.8951	-0.0058
513.093	-0.0105
513.2908	-0.0011
513.4887	-0.0024
513.6865	-0.0108
513.8844	-0.0026
514.0822	-0.004
514.2799	-0.0113
514.4777	-0.0039
514.6755	-0.0043
514.8732	-0.0069
515.0709	-0.0089
515.2687	-0.0091
515.4664	-0.0059
515.664	-0.0072
515.8617	-0.0099
516.0594	-0.0031
516.257	-0.0027
516.4546	-0.0093
516.6522	-0.0009
516.8498	-0.0089
517.0474	0.0011
517.2449	-0.01
517.4425	-0.0096
517.64	0.002
517.8375	-0.0041
518.035	0.0017
518.2325	-0.0092
518.43	-0.0046
518.6274	-0.0105
518.8249	-0.011
519.0223	-0.0026
519.2197	-0.0069
519.4171	-0.0055
519.6145	-0.0037
519.8118	-0.0102
520.0092	0.001
520.2065	-0.0121
520.4038	-0.0091
520.6011	-0.0113
520.7984	-0.0127
520.9956	-0.0072
521.1929	-0.0061
521.3901	-0.0031
521.5874	-0.0133
521.7846	-0.003
521.9818	-0.0016
522.1789	-0.003
522.3761	-0.0195
522.5732	0.001
522.7704	-0.0082
522.9675	-0.0093
523.1646	-0.0094
523.3617	-0.0058
523.5587	-0.0014
523.7558	-0.001
523.9528	-0.0072
524.1498	-0.0077
524.3468	-0.0004
524.5438	-0.0032
524.7408	-0.0113
524.9378	-0.0033
525.1347	0.0042
525.3316	0.0006
525.5285	-0.0062
525.7254	-0.0004
525.9223	0.0024
526.1192	-0.0054
526.316	0.0009
526.5129	-0.0111
526.7097	-0.0089
526.9065	-0.0004
527.1033	0.0023
527.3	-0.0055
527.4968	-0.0116
527.6935	-0.0022
527.8903	-0.0014
528.087	-0.0094
528.2837	0.0015
528.4804	0.0033
528.677	-0.0044
528.8737	-0.0052
529.0703	-0.007
529.2669	0.0001
529.4635	-0.0099
529.6601	-0.0001
529.8567	-0.0126
530.0532	-0.0041
530.2498	-0.0006
530.4463	0.001
530.6428	0.0022
530.8393	-0.004
531.0358	-0.0081
531.2322	-0.0035
531.4287	-0.0162
531.6251	-0.0004
531.8215	-0.0037
532.0179	-0.0079
532.2143	-0.0024
532.4107	0.0034
532.607	-0.0028
532.8034	-0.0027
532.9997	-0.0007
533.196	-0.009
533.3923	-0.0032
533.5886	-0.0046
533.7848	-0.0039
533.9811	-0.0024
534.1773	-0.0114
534.3735	-0.0005
534.5697	-0.0018
534.7659	-0.0025
534.9621	-0.0013
535.1582	-0.007
535.3544	-0.0094
535.5505	-0.0012
535.7466	-0.0056
535.9427	-0.0005
536.1387	0.002
536.3348	-0.0079
536.5308	-0.006
536.7269	-0.0004
536.9229	-0.0064
537.1189	-0.0068
537.3148	-0.0035
537.5108	-0.0023
537.7068	-0.0121
537.9027	-0.0068
538.0986	0.0007
538.2945	-0.0077
538.4904	-0.0073
538.6863	-0.0059
538.8821	-0.0042
539.078	-0.0083
539.2738	-0.0078
539.4696	-0.0071
539.6654	-0.0077
539.8611	-0.0025
540.0569	-0.0072
540.2526	-0.0027
540.4484	0.0075
540.6441	-0.0005
540.8398	-0.0095
541.0355	-0.0011
541.2311	-0.0049
541.4268	0.0015
541.6224	0.001
541.818	-0.0039
542.0136	-0.0084
542.2092	-0.009
542.4048	-0.0079
542.6003	-0.0066
542.7959	-0.0032
542.9914	-0.0134
543.1869	-0.0121
543.3824	-0.0091
543.5779	-0.0127
543.7734	-0.0129
543.9688	-0.0095
544.1642	-0.001
544.3596	-0.0052
544.555	-0.0076
544.7504	-0.0039
544.9458	-0.0054
545.1411	0.0027
545.3365	-0.0065
545.5318	0.0062
545.7271	0.0048
545.9224	0.0044
546.1177	-0.006
546.3129	-0.0009
546.5081	0.001
546.7034	-0.0058
546.8986	-0.0063
547.0938	-0.004
547.289	-0.0057
547.4841	-0.006
547.6793	-0.0043
547.8744	-0.0005
548.0695	-0.0047
548.2646	-0.0051
548.4597	0.0014
548.6548	-0.0021
548.8498	-0.0034
549.0448	0.0008
549.2399	-0.0096
549.4349	-0
549.6298	-0.0036
549.8248	-0.0002
550.0198	-0.008
550.2147	0.0022
550.4096	-0.0055
550.6045	-0.0043
550.7994	0.0064
550.9943	-0.0017
551.1892	-0.0063
551.384	-0.0075
551.5788	-0.0074
551.7737	-0.0022
551.9685	-0.0055
552.1632	-0.0103
552.358	-0.0082
552.5528	-0.0071
552.7475	-0.0072
552.9422	-0.0033
553.1369	-0.0057
553.3316	0.001
553.5263	-0.0038
553.7209	-0.0094
553.9156	-0.0022
554.1102	-0.0079
554.3048	-0.0082
554.4994	-0.001
554.694	0.0065
554.8885	-0.0093
555.0831	-0.0051
555.2776	-0.0064
555.4721	-0.0031
555.6666	-0.0016
555.8611	-0.0053
556.0555	-0.0081
556.25	-0.0018
556.4444	-0.0051
556.6388	-0.0114
556.8332	-0.0049
557.0276	-0.0055
557.222	-0.003
557.4163	0.0033
557.6107	-0.0024
557.805	-0.01
557.9993	-0.0008
558.1936	-0.0052
558.3879	0.0081
558.5821	-0.0064
558.7764	-0.0075
558.9706	-0.0035
559.1648	-0.0085
559.359	-0.0124
559.5532	-0.0049
559.7473	-0.0045
559.9415	-0.0075
560.1356	-0.0085
560.3297	-0.0101
560.5238	-0.0021
560.7179	-0.005
560.9119	0.0043
561.106	-0.001
561.3	-0.0021
561.494	-0.0067
561.688	-0.0008
561.882	-0.0033
562.076	-0.007
562.2699	-0.0092
562.4639	-0.0059
562.6578	-0.0052
562.8517	-0.0071
563.0456	-0.0024
563.2395	-0.0025
563.4333	-0.0035
563.6272	-0.0049
563.821	-0.0053
564.0148	0.001
564.2086	-0.0066
564.4024	0.0001
564.5961	0.0019
564.7899	0.0033
564.9836	-0.0001
565.1773	-0.0022
565.371	-0.0052
565.5647	0.0018
565.7584	0.0046
565.952	-0.0007
566.1456	-0.0011
566.3393	-0.0035
566.5329	-0.0044
566.7264	0.0026
566.92	0.0036
567.1136	0.0008
567.3071	-0.0012
567.5006	0.0013
567.6941	0.0007
567.8876	-0.0046
568.0811	-0.0026
568.2745	-0.01
568.468	-0.0088
568.6614	-0.0083
568.8548	-0.0059
569.0482	-0.0081
569.2416	-0.0027
569.4349	-0.0006
569.6283	-0.0054
569.8216	-0.0065
570.0149	-0.0044
570.2082	-0.0051
570.4015	-0.0012
570.5947	-0.0031
570.788	-0.0066
570.9812	-0.0017
571.1744	-0.0101
571.3676	-0.0033
571.5608	-0.0044
571.754	-0.0055
571.9471	0.0013
572.1402	-0.0068
572.3333	-0.0061
572.5264	-0.0002
572.7195	0.0004
572.9126	-0.0044
573.1057	-0.0073
573.2987	0.0033
573.4917	-0.0046
573.6847	-0.0002
573.8777	-0.0035
574.0707	-0.0014
574.2636	-0.0077
574.4566	0.0028
574.6495	-0.0063
574.8424	-0.0035
575.0353	-0.0022
575.2281	-0.0003
575.421	-0.0052
575.6138	0.0007
575.8067	-0.0025
575.9995	-0.002
576.1923	-0.0027
576.385	-0.0049
576.5778	0.0039
576.7706	0.0002
576.9633	-0.0028
577.156	-0.0008
577.3487	0.0009
577.5414	0.0015
577.734	0.0062
577.9267	-0.0011
578.1193	-0.0018
578.3119	0.0002
578.5045	-0.0015
578.6971	-0.0012
578.8897	-0.0053
579.0822	0.0011
579.2747	0.0048
579.4673	-0.0066
579.6598	0.0014
579.8522	0.0039
580.0447	-0.0031
580.2372	0.0015
580.4296	0.0025
580.622	0.0067
580.8144	-0.0014
581.0068	-0.0018
581.1992	-0.0002
581.3915	-0.0023
581.5839	-0.003
581.7762	-0.0059
581.9685	-0.0001
582.1608	-0.0043
582.353	0.0031
582.5453	-0.0054
582.7375	-0.0029
582.9298	-0.0074
583.122	0.0039
583.3142	-0.0037
583.5063	-0.0024
583.6985	-0.0022
583.8906	0.0009
584.0827	-0.005
584.2749	-0.0073
584.4669	-0.0063
584.659	-0.0074
584.8511	-0.0025
585.0431	-0.0019
585.2352	-0.0081
585.4272	-0.0068
585.6192	-0.0048
585.8111	-0.0016
586.0031	0.0011
586.195	-0.0109
586.387	-0.0046
586.5789	-0.0025
586.7708	-0.0094
586.9627	-0.0053
587.1545	-0.0054
587.3464	-0.0077
587.5382	-0.0016
587.73	-0.0035
587.9218	-0.0012
588.1136	-0.0021
588.3053	-0.0036
588.4971	-0.0081
588.6888	-0.0041
588.8805	-0.0023
589.0722	0.0047
589.2639	-0.0021
589.4556	-0.0029
589.6472	0.0001
589.8389	0.0008
590.0305	-0.0012
590.2221	-0.004
590.4137	-0.0042
590.6052	-0.0021
590.7968	-0.0016
590.9883	-0
591.1798	-0.0007
591.3713	-0.0017
591.5628	-0.0074
591.7543	-0.001
591.9458	-0.0035
592.1372	-0.0039
592.3286	-0.0028
592.52	-0.003
592.7114	0.0052
592.9028	0.0013
593.0941	-0.0015
593.2855	-0.0018
593.4768	0.0036
593.6681	0.0001
593.8594	0.001
594.0506	0.0009
594.2419	0.0043
594.4331	-0.0057
594.6244	-0.0031
594.8156	-0.0067
595.0067	-0.0015
595.1979	-0.0015
595.3891	-0.0032
595.5802	-0.0049
595.7713	-0.0053
595.9624	0.0019
596.1535	0.0014
596.3446	0.0003
596.5357	0.0002
596.7267	-0.0018
596.9177	0.0043
597.1087	0.0019
597.2997	-0.0032
597.4907	-0.0036
597.6817	-0.0055
597.8726	-0.007
598.0635	-0.0031
598.2544	-0.0054
598.4453	-0.0074
598.6362	-0.0068
598.827	-0.0042
599.0179	-0.0038
599.2087	-0.011
599.3995	-0.0067
599.5903	-0.0009
599.7811	-0.0056
599.9718	-0.0017
600.1626	0.0017
600.3533	-0.0037
600.544	-0.0016
600.7347	0.0009
600.9254	-0.0022
601.116	-0.0048
601.3067	-0.0038
601.4973	-0.0113
601.6879	0.0031
601.8785	-0.0046
602.0691	-0.0013
602.2596	-0.0026
602.4502	-0.0055
602.6407	-0.0008
602.8312	-0.0031
603.0217	-0.005
603.2122	-0.0011
603.4027	0.0002
603.5931	-0.0025
603.7835	-0.0017
603.9739	-0.0015
604.1643	-0.004
604.3547	0.0001
604.5451	0.0013
604.7354	0.0015
604.9257	-0.0007
605.116	-0.0045
605.3063	0.001
605.4966	-0.001
605.6869	-0.0039
605.8771	-0.0003
606.0673	-0.0018
606.2575	-0.0018
606.4477	-0.0065
606.6379	-0.008
606.8281	-0.0037
607.0182	-0.0095
607.2083	-0.0031
607.3985	-0.0052
607.5885	-0.0045
607.7786	-0.0043
607.9687	-0.0038
608.1587	-0.0043
608.3488	-0.0054
608.5388	-0.0012
608.7288	-0.0041
608.9187	-0.0025
609.1087	-0.0022
609.2986	-0.0036
609.4886	-0.0023
609.6785	0.0014
609.8684	-0.0003
610.0582	0.0002
610.2481	-0.0055
610.4379	-0.0004
610.6278	-0.0007
610.8176	-0.0008
611.0074	-0.0019
611.1971	0.0004
611.3869	-0.0023
611.5766	0.0013
611.7664	0.0001
611.9561	-0.0022
612.1458	0.0041
612.3354	-0.0037
612.5251	-0.0056
612.7147	-0.0041
612.9044	-0.0027
613.094	0.0066
613.2836	-0.0007
613.4731	-0.0037
613.6627	-0.0023
613.8522	-0.0013
614.0417	-0.006
614.2313	-0.0037
614.4207	-0.004
614.6102	0.0034
614.7997	-0.0038
614.9891	-0.0042
615.1785	-0.0047
615.3679	0.0021
615.5573	-0.0017
615.7467	-0.0006
615.9361	-0.0005
616.1254	-0.0076
616.3147	-0.0008
616.504	-0.0024
616.6933	0.001
616.8826	-0.0002
617.0718	-0.0047
617.2611	0.0008
617.4503	0.0012
617.6395	-0.0027
617.8287	-0.0028
618.0179	0.0046
618.207	-0.0006
618.3961	0.0002
618.5853	-0.0046
618.7744	-0.0012
618.9634	0.003
619.1525	-0.0037
619.3416	-0.005
619.5306	-0.0071
619.7196	-0.0002
619.9086	0.0009
620.0976	-0.0028
620.2866	-0.0015
620.4755	-0.0042
620.6645	-0.0019
620.8534	0.0025
621.0423	-0.006
621.2312	-0.0075
621.42	-0.0045
621.6089	-0.0011
621.7977	-0.0051
621.9865	-0.0027
622.1753	-0.003
622.3641	0.0005
622.5529	-0.0036
622.7416	-0.0037
622.9303	0.0028
623.1191	-0.0018
623.3078	0.0002
623.4964	-0.0024
623.6851	0.0021
623.8737	-0.0023
624.0624	0.0075
624.251	-0.0008
624.4396	-0.0032
624.6282	0.0015
624.8167	0.0046
625.0053	-0.0028
625.1938	0.0042
625.3823	0.0008
625.5708	-0.0003
625.7593	-0.0066
625.9477	-0.0039
626.1362	-0.0039
626.3246	-0.0003
626.513	-0.0052
626.7014	-0.0022
626.8898	-0.0037
627.0781	-0.0042
627.2665	-0.0038
627.4548	-0.0076
627.6431	-0.0034
627.8314	-0.0024
628.0197	-0.001
628.2079	-0.0019
628.3962	0.0052
628.5844	0.003
628.7726	-0.0001
628.9608	0.0021
629.1489	0.0063
629.3371	0.002
629.5252	0.0066
629.7134	0.0001
629.9015	-0.0001
630.0895	-0.0029
630.2776	0.001
630.4657	-0.0003
630.6537	-0.0007
630.8417	-0.0001
631.0297	-0.0007
631.2177	0.0012
631.4057	0.0064
631.5936	0.0002
631.7815	-0.0054
631.9695	-0
632.1574	-0.0073
632.3452	-0.0036
632.5331	-0.0039
632.7209	-0.0081
632.9088	-0.006
633.0966	-0.004
633.2844	-0.0051
633.4722	0.0015
633.6599	0.0015
633.8477	-0.0037
634.0354	-0.0066
634.2231	-0.0022
634.4108	-0.0025
634.5985	-0.0028
634.7861	-0.0082
634.9738	-0.0078
635.1614	-0.0088
635.349	-0.0021
635.5366	-0.006
635.7242	0.0001
635.9117	0.0019
636.0993	0.0023
636.2868	-0.002
636.4743	-0.0005
636.6618	-0.0089
636.8492	-0.0024
637.0367	-0.0057
637.2241	-0.0067
637.4115	-0.0056
637.5989	-0.0024
637.7863	0.0005
637.9737	-0.0018
638.161	-0.0006
638.3484	-0.0034
638.5357	-0.0015
638.723	-0.0044
638.9103	0.0015
639.0975	0.0046
639.2848	-0.0028
639.472	0.002
639.6592	0.006
639.8464	-0.0003
640.0336	-0.0049
640.2208	0.0017
640.4079	-0.0034
640.595	0.0004
640.7821	0.0015
640.9692	0.0035
641.1563	0.0046
641.3434	0.0026
641.5304	-0.003
641.7174	-0.0026
641.9044	0.0044
642.0914	0.0022
642.2784	0.0031
642.4653	0.0066
642.6523	-0.0036
642.8392	0.0056
643.0261	0.0061
643.213	0.0021
643.3999	0.0001
643.5867	0.0008
643.7735	-0.0005
643.9604	0.0024
644.1472	-0.0021
644.3339	0.0036
644.5207	-0.0047
644.7075	-0.007
644.8942	-0.0023
645.0809	0.0008
645.2676	-0.008
645.4543	0.0047
645.6409	-0.0016
645.8276	-0.0016
646.0142	-0.0033
646.2008	-0.0062
646.3874	-0.0052
646.574	-0.0011
646.7605	-0.0003
646.9471	-0.0064
647.1336	-0.0013
647.3201	-0.0042
647.5066	0.0003
647.6931	0.0012
647.8795	-0.0026
648.0659	-0.0022
648.2524	-0.005
648.4388	-0.0009
648.6252	-0.004
648.8115	-0.0093
648.9979	-0.0032
649.1842	-0.005
649.3705	-0.0045
649.5568	0.0015
649.7431	-0.0011
649.9294	-0.0021
650.1156	-0.0029
650.3018	-0.0056
650.488	-0.0107
650.6742	-0.0063
650.8604	0.0014
651.0466	0.0015
651.2327	-0.0026
651.4188	0.0014
651.6049	-0.0019
651.791	0.0043
651.9771	-0.0019
652.1632	0.0007
652.3492	0.0051
652.5352	-0.002
652.7212	0.0032
652.9072	0.007
653.0932	0.0007
653.2791	0.0004
653.465	-0.002
653.651	-0.0023
653.8369	-0.0015
654.0227	-0.0004
654.2086	0.0009
654.3944	-0.0052
654.5803	-0.0077
654.7661	-0.0013
654.9519	-0.0006
655.1377	-0.0012
655.3234	-0
655.5092	-0
655.6949	-0
655.8806	-0
656.0663	-0
656.2519	-0
656.4376	-0.0047
656.6232	-0.0044
656.8088	-0.0026
656.9945	0.0004
657.18	0.0024
657.3656	0.0003
657.5511	-0.0079
657.7367	-0.0008
657.9222	0.0011
658.1077	0.0038
658.2932	-0.0004
658.4786	0.0017
658.6641	-0.0043
658.8495	-0.0017
659.0349	-0.0011
659.2203	-0.0106
659.4057	-0.0066
659.591	-0.0056
659.7764	-0.0047
659.9617	-0.0045
660.147	-0.0019
660.3323	-0.0039
660.5176	-0.0052
660.7028	-0.0115
660.888	-0.0033
661.0733	0.0016
661.2585	-0.0096
661.4436	0.0008
661.6288	-0.0054
661.8139	0.0007
661.9991	-0.0017
662.1842	-0.0009
662.3693	-0.0016
662.5544	0
662.7394	0.0012
662.9245	0.0054
663.1095	0.0022
663.2945	-0.0044
663.4795	-0.0062
663.6644	-0.0083
663.8494	-0.0065
664.0343	0.0008
664.2193	-0.005
664.4042	-0.0077
664.589	-0.0018
664.7739	-0.0032
664.9587	-0.0001
665.1436	0.0042
665.3284	-0.0062
665.5132	-0.0008
665.698	0.0053
665.8827	-0.0002
666.0675	-0.0051
666.2522	-0.0086
666.4369	-0.0051
666.6216	-0.0072
666.8063	-0.0101
666.9909	-0.0083
667.1756	-0.0084
667.3602	-0.0085
667.5448	-0.0113
667.7294	-0.0037
667.9139	-0.003
668.0985	-0.0097
668.283	-0.0062
668.4675	-0.0133
668.652	-0.0056
668.8365	-0.0065
669.0209	-0.0108
669.2054	-0.0006
669.3898	-0.0061
669.5742	-0.0094
669.7586	-0.0039
669.943	-0.0034
670.1273	-0.0046
670.3117	0.0003
670.496	-0.0063
670.6803	0.0017
670.8646	-0.0056
671.0488	-0.0022
671.2331	-0.0002
671.4173	-0.0008
671.6015	-0.0018
671.7857	-0.0061
671.9699	-0.0076
672.1541	-0.0058
672.3382	-0.0056
672.5223	-0.0064
672.7064	-0.0119
672.8905	-0.0117
673.0746	-0.0109
673.2587	-0.0158
673.4427	-0.0132
673.6267	-0.0136
673.8107	-0.011
673.9947	-0.0128
674.1787	-0.0081
674.3626	-0.0096
674.5465	-0.0084
674.7304	0.0028
674.9143	-0.0023
675.0982	-0.0033
675.2821	-0.0036
675.4659	-0.0016
675.6497	0.0003
675.8335	-0.0022
676.0173	-0.006
676.2011	-0.0069
676.3849	-0.0003
676.5686	-0.0031
676.7523	-0.004
676.936	-0.0008
677.1197	-0.0066
677.3034	-0.0099
677.487	-0.0058
677.6706	-0.0056
677.8542	-0.004
678.0378	0.0002
678.2214	-0.009
678.405	-0.0026
678.5885	-0.0053
678.772	-0.0078
678.9555	0.0008
679.139	-0.0058
679.3225	-0.0058
679.5059	-0.0057
679.6894	-0.0015
679.8728	-0.0044
680.0562	0.0024
680.2395	-0.0001
680.4229	0.002
680.6062	0.0063
680.7896	-0.0012
680.9729	0.0015
681.1562	-0.0018
681.3394	-0.0013
681.5227	-0.0076
681.7059	-0.0054
681.8891	-0.0057
682.0723	-0.0059
682.2555	-0.0046
682.4387	0.0017
682.6218	-0.006
682.805	-0.0028
682.9881	-0.0048
683.1712	0.0018
683.3542	-0.0032
683.5373	-0.0046
683.7203	0.0004
683.9034	-0.0043
684.0864	-0.0064
684.2694	-0.001
684.4523	-0.0016
684.6353	-0.0001
684.8182	-0.0031
685.0011	-0.0018
685.184	-0.0027
685.3669	-0.0018
685.5498	-0.0016
685.7326	0.0002
685.9154	-0.0008
686.0982	-0.0033
686.281	-0.0095
686.4638	-0.0033
686.6465	-0.003
686.8293	-0.003
687.012	0.0004
687.1947	-0.0044
687.3774	-0.0046
687.56	-0.0058
687.7427	-0.0046
687.9253	-0.0012
688.1079	0.0002
688.2905	-0.0082
688.4731	-0.0049
688.6556	-0.0084
688.8382	0.0005
689.0207	0.0011
689.2032	0.0013
689.3857	-0.001
689.5681	-0.0034
689.7506	0.0037
689.933	0.0019
690.1154	0.0049
690.2978	-0.0056
690.4802	-0.0017
690.6626	0.0079
690.8449	0.0017
691.0272	0.0007
691.2095	0.0002
691.3918	-0.002
691.5741	-0.0034
691.7563	0.0009
691.9386	-0.0029
692.1208	-0.0039
692.303	-0.0049
692.4852	0.0002
692.6673	-0.0064
692.8495	-0.0065
693.0316	0.0006
693.2137	-0.0069
693.3958	-0.0043
693.5778	-0.004
693.7599	-0.005
693.9419	-0.0092
694.1239	-0.0025
694.3059	-0.0116
694.4879	-0.0029
694.6699	-0.0071
694.8518	-0.0079
695.0337	-0.0046
695.2157	-0.0037
695.3975	-0.0066
695.5794	-0.0044
695.7613	-0.0057
695.9431	-0.0045
696.1249	-0.0074
696.3067	-0.0038
696.4885	-0.0004
696.6703	-0.0031
696.852	-0.0056
697.0337	-0.0004
697.2154	-0.0032
697.3971	-0.0074
697.5788	-0.004
697.7605	-0.002
697.9421	-0.008
698.1237	-0.0052
698.3053	-0.0058
698.4869	-0.0027
698.6685	-0.0012
698.85	-0.0043
699.0315	-0.0001
699.213	0.0017
699.3945	0.0017
699.576	0.0022
699.7575	-0.0006
699.9389	-0.0022
700.1203	-0.0026
700.3017	-0.0036
700.4831	-0.0007
700.6645	-0.0093
700.8458	-0.0035
701.0271	-0.0023
701.2084	-0.0131
701.3897	-0.0026
701.571	0.0006
701.7523	0.0058
701.9335	0.0086
702.1147	0.0042
702.2959	-0.0021
702.4771	0.0017
702.6583	0.0019
702.8394	-0.0011
703.0205	0.0012
703.2016	-0
703.3827	0.0056
703.5638	-0.005
703.7449	-0.0046
703.9259	0.0013
704.1069	-0.0007
704.2879	-0.0024
704.4689	-0.0021
704.6499	-0.0024
704.8308	-0.0019
705.0117	-0.0009
705.1927	0.0018
705.3735	0.0058
705.5544	0.0005
705.7353	-0.0012
705.9161	0.0056
706.0969	0.0031
706.2777	-0.0016
706.4585	-0.0019
706.6393	-0.0037
706.82	-0.005
707.0007	-0.0064
707.1815	-0.0033
707.3621	-0.0017
707.5428	-0.0057
707.7235	-0.0001
707.9041	-0.0023
708.0847	-0.0013
708.2653	-0.0029
708.4459	-0.004
708.6265	-0.0043
708.807	0.0007
708.9875	0
709.168	-0.0005
709.3485	-0.0032
709.529	-0.0028
709.7095	-0.009
709.8899	-0.0054
710.0703	0.0027
710.2507	-0.004
710.4311	-0.0027
710.6115	0.0046
710.7918	-0.0018
710.9721	0.0005
711.1524	0.0017
711.3327	0.0015
711.513	-0.0002
711.6932	-0.0059
711.8735	-0.001
712.0537	-0.0012
712.2339	-0.0029
712.4141	0.0001
712.5942	-0.0015
712.7744	-0.0007
712.9545	-0.0001
713.1346	0.0008
713.3147	0.0034
713.4947	-0.0013
713.6748	-0.0048
713.8548	-0.0043
714.0348	-0.0033
714.2148	-0.0035
714.3948	-0.0059
714.5748	-0.0088
714.7547	-0.0104
714.9346	-0.0011
715.1145	-0.0053
715.2944	0.0008
715.4743	-0.0025
715.6541	-0.0054
715.834	-0.0039
716.0138	-0.0016
716.1936	-0.0007
716.3733	-0.0085
716.5531	-0.0066
716.7328	-0.0038
716.9126	-0.0022
717.0923	-0.0039
717.2719	-0.0048
717.4516	-0.0044
717.6312	0.0027
717.8109	0.0002
717.9905	-0.0081
718.1701	-0.0032
718.3496	-0.0014
718.5292	-0.0027
718.7087	-0.0011
718.8882	-0.0027
719.0677	-0.0004
719.2472	-0.001
719.4267	-0.01
719.6061	-0.0077
719.7856	-0.0036
719.965	-0.0126
720.1443	-0.0036
720.3237	-0.0062
720.5031	-0.0116
720.6824	-0.0018
720.8617	-0.0037
721.041	-0.0014
721.2203	-0.007
721.3995	-0.0017
721.5788	-0.0107
721.758	-0.0018
721.9372	-0.0035
722.1164	-0.0048
722.2956	-0.0084
722.4747	-0.0039
722.6538	-0.0063
722.8329	-0.007
723.012	-0.0025
723.1911	0.0013
723.3702	-0.0023
723.5492	-0.0027
723.7282	-0.0031
723.9072	-0.0039
724.0862	-0.0083
724.2652	-0.0036
724.4441	-0.0058
724.623	0.0008
724.8019	0.0019
724.9808	-0.0001
725.1597	0.0038
725.3385	0.0058
725.5174	0.0075
725.6962	-0.0111
725.875	0.0037
726.0538	0.0054
726.2325	0.0009
726.4112	0.0002
726.59	-0.0012
726.7687	-0.0025
726.9474	-0.0006
727.126	-0.0031
727.3047	0.0036
727.4833	0.0017
727.6619	-0.0139
727.8405	-0.0006
728.0191	-0.0032
728.1976	-0.0053
728.3762	-0.0055
728.5547	-0.0064
728.7332	-0.0027
728.9116	-0.0098
729.0901	-0.0078
729.2686	-0.0054
729.447	-0.0049
729.6254	-0.0067
729.8038	-0.0091
729.9821	-0.0008
730.1605	-0.0015
730.3388	-0.0011
730.5171	0.0006
730.6954	-0.0029
730.8737	-0.0042
731.0519	0.0042
731.2302	0.0065
731.4084	0.0031
731.5866	-0.0009
731.7648	0.0017
731.9429	0.0043
732.1211	0.0034
732.2992	0.0045
732.4773	0.0028
732.6554	-0.0038
732.8335	-0.0064
733.0115	-0.0037
733.1896	-0.0084
733.3676	-0.0031
733.5456	-0.0003
733.7235	-0.0022
733.9015	0.0031
734.0794	0.0013
734.2574	-0.0008
734.4353	-0.0044
734.6131	0.0022
734.791	-0.0054
734.9689	-0.0024
735.1467	0.0031
735.3245	0.0011
735.5023	-0.0037
735.68	-0.0007
735.8578	-0.0005
736.0355	0.0089
736.2132	0.0026
736.3909	-0.0009
736.5686	-0.0031
736.7463	-0.0029
736.9239	-0.0063
737.1015	-0.0015
737.2791	-0.0059
737.4567	-0.007
737.6343	0.0024
737.8118	-0.0059
737.9894	-0.0008
738.1669	-0.0055
738.3444	0.002
738.5218	0.0039
738.6993	0.004
738.8767	-0.0022
739.0541	-0.0054
739.2315	-0.0004
739.4089	-0
739.5863	-0.0029
739.7636	-0.0055
739.9409	0.0002
740.1182	0.005
740.2955	-0.0008
740.4728	-0.0017
740.65	0.0003
740.8272	0.007
741.0044	-0.0046
741.1816	0.0023
741.3588	0.0042
741.5359	0.0034
741.7131	0.0032
741.8902	0.002
742.0673	0.0035
742.2444	-0.0049
742.4214	-0.0005
742.5985	-0.008
742.7755	-0.0061
742.9525	-0.0042
743.1295	-0.0008
743.3064	-0.0035
743.4834	-0.0014
743.6603	-0.001
743.8372	0.0006
744.0141	-0.0031
744.191	-0.0072
744.3678	0.0007
744.5446	-0.0006
744.7215	0
744.8982	0.004
745.075	-0.0042
745.2518	0.0048
745.4285	0.0015
745.6052	0.0077
745.7819	-0.0008
745.9586	0.0007
746.1353	0.0028
746.3119	0.0029
746.4885	-0.0012
746.6651	-0.0009
746.8417	-0.0072
747.0183	-0.0044
747.1948	-0.0059
747.3714	-0.0027
747.5479	-0.0039
747.7244	-0.0005
747.9008	-0.0014
748.0773	0.0092
748.2537	0.0047
748.4301	0.0063
748.6065	0.0011
748.7829	0.0079
748.9593	0.0059
749.1356	-0.0074
749.3119	0.0018
749.4882	0.0026
749.6645	0.0013
749.8408	-0.0025
750.017	-0.0038
750.1933	-0.0021
750.3695	-0.0088
750.5457	-0.0058
750.7218	-0.0065
750.898	-0.0036
751.0741	-0.013
751.2502	-0.0022
751.4263	-0.0032
751.6024	-0.0085
751.7784	0.0037
751.9545	-0.0019
752.1305	-0.0019
752.3065	0.0016
752.4825	-0.0028
752.6584	0.0018
752.8344	0.0042
753.0103	0.0013
753.1862	0.0068
753.3621	-0.0046
753.5379	-0.0039
753.7138	0.0034
753.8896	-0.0098
754.0654	-0.003
754.2412	-0.0109
754.417	-0.0054
754.5927	-0.0072
754.7685	-0.0084
754.9442	-0.0088
755.1199	-0.0076
755.2956	-0.0036
755.4712	-0.0033
755.6469	-0.0111
755.8225	-0.0102
755.9981	-0.0085
756.1736	-0.0054
756.3492	-0.0122
756.5248	-0.0001
756.7003	-0.0071
756.8758	-0.0112
757.0513	-0.0075
757.2267	-0.0077
757.4022	-0.0066
757.5776	-0.0089
757.753	-0.0101
757.9284	-0.0093
758.1038	-0.0035
758.2791	-0.0097
758.4545	-0.012
758.6298	-0.0067
758.8051	-0.0096
758.9803	-0.0096
759.1556	-0.012
759.3308	-0.0016
759.506	-0.0126
759.6812	-0.0107
759.8564	-0.0022
760.0316	-0.0105
760.2067	0.0014
760.3819	-0.0054
760.557	-0.0067
760.732	-0.0039
760.9071	-0.0146
761.0821	-0.0109
761.2572	-0.0131
761.4322	-0.006
761.6072	-0.0063
761.7821	-0.0104
761.9571	-0.0109
762.132	-0.01
762.3069	0.0001
762.4818	-0.0061
762.6567	-0.0134
762.8316	-0.0041
763.0064	-0.0038
763.1812	-0.005
763.356	0.0004
763.5308	-0.0021
763.7055	0.0002
763.8803	-0.0029
764.055	-0.004
764.2297	0.0014
764.4044	-0.0018
764.579	-0.0011
764.7537	-0.0016
764.9283	-0.0031
765.1029	0.0095
765.2775	0.0038
765.4521	0.0055
765.6266	0.0041
765.8011	0.009
765.9756	0.0075
766.1501	0.0093
766.3246	0.0027
766.4991	-0.0021
766.6735	-0.0052
766.8479	-0.0007
767.0223	0.0089
767.1967	-0.0039
767.371	0.002
767.5454	-0.004
767.7197	-0.0014
767.894	0.0007
768.0683	0.0022
768.2425	-0.0043
768.4168	-0.0073
768.591	0.0083
768.7652	-0.0013
768.9394	0.0031
769.1135	0.0071
769.2877	0.003
769.4618	0.0056
769.6359	-0.0005
769.81	0.0093
769.984	-0.0077
770.1581	0.0074
770.3321	0.0037
770.5061	0.0032
770.6801	0.0038
770.8541	-0
771.028	0.0063
771.202	0.0062
771.3759	-0.0003
771.5498	0.003
771.7236	0.0038
771.8975	0.0004
772.0713	0.0044
772.2451	-0.0002
772.4189	0.007
772.5927	-0.0036
772.7665	-0.0071
772.9402	0.0001
773.1139	0.0023
773.2876	-0.0053
773.4613	-0.0031
773.635	0.0079
773.8086	0.0009
773.9822	-0.0001
774.1558	0.0038
774.3294	0.0095
774.503	0.0056
774.6765	-0.0061
774.8501	0.0146
775.0236	-0.014
775.1971	-0.0075
775.3705	0.0027
775.544	0.0019
775.7174	0.0038
775.8908	-0.0068
776.0642	-0.0033
776.2376	0.0006
776.4109	-0.0031
776.5843	0.0075
776.7576	-0.0002
776.9309	0.0019
777.1041	-0.002
777.2774	0.0031
777.4506	-0.0037
777.6238	0.0036
777.797	0.0075
777.9702	-0.0041
778.1434	-0.0072
778.3165	0.0009
778.4896	-0.0086
778.6627	-0.0053
778.8358	0.0071
779.0089	-0.0053
779.1819	0.0005
779.3549	-0.0028
779.5279	0.0017
779.7009	-0.0031
779.8739	-0.0052
780.0468	-0.0099
780.2197	-0.0022
780.3926	-0
780.5655	-0.0048
780.7384	-0.009
780.9112	-0.0045
781.0841	-0.002
781.2569	-0.0058
781.4297	-0.0073
781.6024	0.0046
781.7752	-0.0014
781.9479	0.0012
782.1206	-0.0081
782.2933	-0.0027
782.466	0.0014
782.6386	-0.009
782.8113	-0.0163
782.9839	-0.0102
783.1565	-0.0118
783.329	-0.0059
783.5016	-0.0024
783.6741	-0.0058
783.8466	-0.0071
784.0191	-0.0106
784.1916	0.0049
784.3641	0.0054
784.5365	0.0036
784.7089	0.0042
784.8813	0.0071
785.0537	0.0132
785.2261	-0.0016
785.3984	0.0031
785.5707	0.0039
785.743	0.0021
785.9153	0.0029
786.0876	0.0019
786.2598	0.007
786.432	0.008
786.6042	0.0064
786.7764	0.0067
786.9486	-0.002
787.1207	-0.0104
787.2928	0.004
787.4649	-0.0072
787.637	-0.0068
787.8091	0.0005
787.9811	0.0078
788.1532	0.0014
788.3252	-0.0065
788.4972	-0.0073
788.6691	0.0029
788.8411	0.0001
789.013	-0.0061
789.1849	0.0014
789.3568	0.0012
789.5287	-0.0043
789.7005	0.002
789.8723	0.002
790.0442	-0.0031
790.2159	-0.0058
790.3877	-0.0028
790.5595	-0.0077
790.7312	0.0039
790.9029	-0.0003
791.0746	-0.009
791.2463	0.0037
791.4179	0.0014
791.5896	0.0046
791.7612	0.0002
791.9328	0.0034
792.1044	-0.0067
792.2759	0.0111
792.4474	0.0002
792.619	-0.0094
792.7905	-0.0069
792.9619	0.0015
793.1334	-0.0058
793.3048	-0.0022
793.4762	0.0036
793.6476	-0.0112
793.819	-0.0095
793.9904	-0.0116
794.1617	-0.0112
794.333	-0.0056
794.5043	-0.0059
794.6756	0.0078
794.8469	-0.0036
795.0181	-0.0158
795.1893	-0.004
795.3605	-0.0062
795.5317	-0.0061
795.7029	-0.003
795.874	-0.0049
796.0452	-0.0106
796.2163	-0.012
796.3873	-0.006
796.5584	-0.0115
796.7294	-0.0097
796.9005	-0.0235
797.0715	-0.0114
797.2425	-0.0103
797.4134	-0.0098
797.5844	-0.0152
797.7553	-0.0112
797.9262	-0.0109
798.0971	-0.0125
798.2679	-0.0047
798.4388	-0.0152
798.6096	-0.011
798.7804	-0.0117
798.9512	-0.0129
799.122	-0.0082
799.2927	-0.0083
799.4635	-0.0048
799.6342	-0.0122
799.8049	-0.0064
799.9755	-0.0064
800.1462	-0.0108
800.3168	-0.0019
800.4874	-0.0078
800.658	-0.0172
800.8286	-0.0143
800.9991	-0.007
801.1696	-0.0101
801.3402	-0.016
801.5106	-0.0208
801.6811	-0.0248
801.8516	-0.0135
802.022	-0.0285
802.1924	-0.0233
802.3628	-0.0104
802.5332	-0.0108
802.7035	-0.0123
802.8739	-0.0131
803.0442	-0.0167
803.2145	-0.0116
803.3847	-0.0153
803.555	-0.0186
803.7252	-0.0118
803.8954	-0.016
804.0656	0.002
804.2358	-0.0202
804.4059	-0.0102
804.5761	-0.006
804.7462	0.0044
804.9163	-0.0084
805.0864	-0.0019
805.2564	-0.0129
805.4264	-0.0101
805.5965	-0.0113
805.7665	0.0084
805.9364	-0.0018
806.1064	-0.0014
806.2763	-0.0142
806.4462	-0.0036
806.6161	-0.0141
806.786	-0.0078
806.9559	-0.0039
807.1257	-0.005
807.2955	-0.0057
807.4653	-0.0114
807.6351	-0.004
807.8048	-0.0111
807.9746	-0.0083
808.1443	0.001
808.314	0.0027
808.4837	0.0084
808.6533	-0.0018
808.8229	-0.0076
808.9926	0.0147
809.1622	-0.0026
809.3317	0.0169
809.5013	-0.0003
809.6708	0.0043
809.8403	0.0069
810.0098	0.0113
810.1793	-0.0103
810.3488	0.0132
810.5182	-0.0031
810.6876	0.0094
810.857	-0.0138
811.0264	-0.0121
811.1958	0.0174
811.3651	-0.0145
811.5344	0.0072
811.7037	-0.0086
811.873	0.0002
812.0422	-0.0055
812.2115	-0.022
812.3807	0.0033
812.5499	0.0043
812.7191	-0.0112
812.8882	0.0084
813.0574	-0.0107
813.2265	-0.002
813.3956	-0.0093
813.5646	-0.0095
813.7337	0.0048
813.9027	0.0032
814.0718	-0.0068
814.2407	0.0146
814.4097	-0.0021
814.5787	0.0054
814.7476	-0.0006
814.9165	-0.0016
815.0854	-0.0154
815.2543	-0.0032
815.4232	0.0028
815.592	-0.0014
815.7608	-0.003
815.9296	-0.002
816.0984	0.007
816.2671	0.0056
816.4359	0.0123
816.6046	-0.0019
816.7733	0.0093
816.942	0.0041
817.1106	-0.0021
817.2793	-0.0007
817.4479	0.0035
817.6165	-0.0063
817.785	-0.0019
817.9536	-0.0054
818.1221	-0.013
818.2906	-0.0077
818.4591	-0.0213
818.6276	0.0119
818.7961	-0.0136
818.9645	0.0009
819.1329	-0.0015
819.3013	-0.011
819.4697	-0.0123
819.638	-0.0022
819.8064	-0.0022
819.9747	0.0025
820.143	-0.0018
820.3113	-0.0057
820.4795	0.0167
820.6477	-0.0013
820.816	0.0032
820.9842	0.003
821.1523	-0.0219
821.3205	-0.0105
821.4886	-0.0032
821.6567	-0.0041
821.8248	0.0003
821.9929	-0.0038
822.1609	-0.0128
822.329	-0.0024
822.497	0.001
822.665	-0.0092
822.833	-0.0123
823.0009	-0.0239
823.1688	-0.0132
823.3367	0.0091
823.5046	-0.0004
823.6725	-0.0123
823.8404	-0.0025
824.0082	-0.0167
824.176	-0.0122
824.3438	-0.0158
824.5116	0.0047
824.6793	-0.0233
824.847	-0.0112
825.0147	0.0054
825.1824	-0.0153
825.3501	0.0042
825.5177	-0.0158
825.6854	-0.0016
825.853	-0.0009
826.0206	-0.0058
826.1881	-0.0115
826.3557	-0.0052
826.5232	0.0209
826.6907	-0.0003
826.8582	0.009
827.0257	-0.0133
827.1931	0.0103
827.3605	-0.0045
827.528	0.0052
827.6953	-0.0166
827.8627	0.0095
828.03	-0.0112
828.1974	-0.0044
828.3647	0.005
828.532	-0.0142
828.6992	0.0008
828.8665	-0.0185
829.0337	-0.0141
829.2009	0.0051
829.3681	-0.027
829.5352	-0.0027
829.7024	-0.0009
829.8695	-0.0116
830.0366	-0.0327
830.2037	-0.002
830.3707	-0.0088
830.5378	-0.0229
830.7048	-0.0264
830.8718	-0.0031
831.0388	-0.0064
831.2057	-0.0027
831.3727	-0.0178
831.5396	0.0026
831.7065	0.0002
831.8734	0.0142
832.0402	-0.0083
832.2071	0.0199
832.3739	-0.0012
832.5407	-0
832.7075	-0.0111
832.8742	0.0023
833.041	0.0125
833.2077	-0.0342
833.3744	0.0036
833.541	0.0011
833.7077	-0.0052
833.8743	0.007
834.0409	0.0029
834.2075	0.0142
834.3741	-0.0106
834.5407	0.0015
834.7072	0.0122
834.8737	-0.0097
835.0402	-0.0306
835.2067	0.0069
835.3731	-0.0075
835.5395	-0.0035
835.706	-0.0414
835.8723	-0.0057
836.0387	-0.0068
836.2051	-0.0161
836.3714	-0.0033
836.5377	-0.0021
836.704	-0.0022
836.8703	-0.0165
837.0365	-0.0029
837.2027	-0.002
837.3689	-0.022
837.5351	-0.0143
837.7013	0.0055
837.8674	0.0104
838.0335	0.0013
838.1997	0.0018
838.3657	0.0047
838.5318	0.0042
838.6978	-0.0208
838.8639	0.012
839.0299	-0.0157
839.1958	0.0026
839.3618	0.0003
839.5277	-0.0071
839.6937	-0.008
839.8596	-0.0053
840.0254	0.0081
840.1913	0.0003
840.3571	0.0071
840.523	0.0072
840.6888	0.0062
840.8545	-0.0132
841.0203	-0.0062
841.186	0.0027
841.3517	-0.0184
841.5174	-0.0105
841.6831	0.0176
841.8488	0.0031
842.0144	0.0301
842.18	0.0081
842.3456	-0.01
842.5112	0.0059
842.6767	0.0072
842.8422	-0.0025
843.0077	0.0034
843.1732	-0.0114
843.3387	-0.0072
843.5042	-0.01
843.6696	0.0315
843.835	-0.0091
844.0004	0.0061
844.1657	-0.0045
844.3311	0.0179
844.4964	-0.0059
844.6617	0.0132
844.827	-0.0097
844.9923	0.0007
845.1575	0.0103
845.3227	-0.0004
845.4879	0.0276
845.6531	-0.0154
845.8183	-0.0181
845.9834	-0.007
846.1485	0.0341
846.3136	-0.0512
846.4787	-0.0167
846.6438	0.0046
846.8088	0.0172
846.9738	-0.0013
847.1388	-0.011
847.3038	0.0073
847.4687	-0.0081
847.6337	0.0227
847.7986	0.0376
847.9635	0.0029
848.1284	-0.0187
848.2932	-0.0089
848.458	0.0048
848.6228	0.0142
848.7876	-0.022
848.9524	0.0212
849.1172	0.0078
849.2819	0.0271
849.4466	-0.03
849.6113	-0.0165
849.7759	-0.0301
849.9406	-0.0251
850.1052	0.0316
850.2698	0.0275
850.4344	0.0507
850.599	-0
850.7635	0.0148
850.928	-0.0064
851.0925	0.0364
851.257	-0.0011
851.4215	0.0344
851.5859	0.0418
851.7503	0.0051
851.9147	0.0047
852.0791	0.0174
852.2434	-0.0246
852.4078	0.0484
852.5721	-0.0256
852.7364	-0.0688
852.9007	0.0205
853.0649	-0.0187
853.2291	-0.0341
853.3934	0.0014
853.5575	0.0155
853.7217	-0.0127
853.8859	-0.0107
854.05	-0.0358
854.2141	-0.0451
854.3782	0.0116
854.5423	-0.0422
854.7063	0.0114
854.8703	-0.0171
855.0343	0.0181
855.1983	0.0242
855.3623	-0.0317
855.5262	0.0101
855.6901	0.0315
855.854	-0
856.0179	0.0529
856.1818	0.0276
856.3456	-0.0348
856.5094	-0.0233
856.6732	-0.0335
856.837	-0.0212
857.0008	0.0183
857.1645	-0.0079
857.3282	0.0163
857.4919	-0.0801
857.6556	0.0925
857.8192	0.0132
857.9828	0.0594
858.1465	0.0663
858.31	-0.0528
858.4736	-0.126
858.6372	0.0104
858.8007	0.0116
858.9642	-0.0745
859.1277	0.0419
859.2911	0.0052
859.4546	-0.0209
859.618	-0.039
859.7814	-0
859.9448	0.0155
860.1081	-0.063
860.2715	0.0516
860.4348	0.0042
860.5981	-0.0576
860.7614	-0.0849
860.9246	-0.048
861.0879	-0.1009
861.2511	0.0347
861.4143	-0.0547
861.5774	-0.0146
861.7406	0.0189
861.9037	-0.1605
862.0668	-0.0368
862.2299	-0.0634
862.393	-0.0455
862.556	0.08
862.7191	-0.0293
862.8821	-0.0502
863.0451	-0.0053
863.208	-0.0915
863.371	0.1079
863.5339	-0.0126
863.6968	-0.173
863.8597	-0.064
864.0225	-0.0647
864.1854	0.0546
864.3482	-0.0791
864.511	-0.0326
864.6737	0.0086
864.8365	0.093
864.9992	-0.0444
865.1619	-0.122
865.3246	-0.0947
865.4873	0.1849
865.65	0.0511
865.8126	0.0383
865.9752	-0.1123
866.1378	-0.0278
866.3004	-0.0732
866.4629	-0.1068
866.6254	0.0027
866.7879	0.0888
866.9504	-0.1468
867.1129	0.0233
867.2753	0.0815
867.4377	0.1586
867.6001	-0.329
867.7625	0.253
867.9249	-0.0731
868.0872	-0.1249
868.2495	-0.0158
868.4118	-0.0424
868.5741	-0.1642
868.7363	0.0935
868.8986	-0.0219
869.0608	0.2064
869.223	-0.0052
869.3851	0.0628
869.5473	-0.2074
869.7094	0.1713
869.8715	-0.1248
870.0336	-0.0418
870.1957	0.1029
870.3577	-0.0193
870.5197	-0.3758
870.6817	-0.0062
870.8437	-0
871.0057	1.043
871.1676	0.0168
871.3295	-0.4127
871.4914	-0.0146
871.6533	0.103
871.8151	-0.0266
871.977	0.3597
872.1388	0.0791
872.3006	-0.0353
872.4623	-0.0979
872.6241	0.3313
872.7858	-0.0212
872.9475	-0.0551
873.1092	-0.1699
873.2709	-0.2302
873.4325	0.3001
873.5941	-0.206
873.7557	0.1207
873.9173	-0.1183
874.0789	-0.3763
874.2404	-0.0816
874.4019	-0.3058
874.5634	-0.1715
874.7249	-0.091
874.8863	0.0756
875.0478	-0.2479
875.2092	-0.2844
875.3706	0.103
875.5319	-0.162
875.6933	-0.3401
875.8546	-0.3834
876.0159	0.1345
876.1772	-0.3344
876.3385	-0
876.4997	0.0966
876.6609	-0.3393
876.8221	-0.115
876.9833	-0.2379
877.1445	-0.2857
877.3056	-0.0138
877.4667	-0.6694
877.6278	0.0954
877.7889	0.1292
877.9499	-0.6087
878.111	0.2833
878.272	0.2725
878.433	-0.0957
878.5939	0.0437
878.7549	-0.3187
878.9158	-0.0425
879.0767	0.181
879.2376	0.2367
879.3984	0.4862
879.5593	0.9841
879.7201	-0
879.8809	0.0571
880.0417	-0
880.2024	-0.223
880.3632	-0.1713
880.5239	-0
880.6846	-0.1756
880.8452	0.2194
881.0059	-0.2696
881.1665	-0
881.3271	-0.224
881.4877	0.4124
881.6483	-0
881.8088	-0.151
881.9693	0.1198
882.1298	0.1198
882.2903	0.1198
