Data from MonoPyChalIsomerACN10uM450nmA_Absorbance_13-11-25-691.txt Node
Date: Tue Jul 09 13:11:25 BST 2024
User: LASERRRRR
Spectrometer: FLMT03099
Trigger mode: 0
Integration Time (sec): 2.000000E-1
Scans to average: 1
Electric dark correction enabled: true
Nonlinearity correction enabled: false
Boxcar width: 0
XAxis mode: Wavelengths
Number of Pixels in Spectrum: 3648
>>>>>Begin Spectral Data<<<<<
179.3399	-0.0298
179.5586	-0.0298
179.7771	-0.0298
179.9957	-0.0709
180.2143	0.5091
180.4329	0.3609
180.6514	0.3662
180.8699	-0
181.0885	-0
181.307	0.1346
181.5255	1.2064
181.744	-0.2802
181.9625	0.4358
182.181	-0.1865
182.3994	-0
182.6179	-0.1281
182.8363	-0.0185
183.0547	0.0918
183.2732	0.0981
183.4916	0.0285
183.71	0.0318
183.9284	0.0383
184.1467	-0.0436
184.3651	-0.0162
184.5835	0.0836
184.8018	0.0457
185.0201	0.1059
185.2385	0.0407
185.4568	-0.0318
185.6751	0.1008
185.8934	-0.0417
186.1117	0.0924
186.3299	-0.024
186.5482	-0.0242
186.7664	0.0175
186.9847	0.098
187.2029	0.1402
187.4211	0.1454
187.6393	-0.0154
187.8575	0.0751
188.0757	0.0002
188.2939	-0.01
188.512	-0.0167
188.7302	-0.0041
188.9483	0.0367
189.1665	-0.0281
189.3846	0.1347
189.6027	0.2158
189.8208	0.0867
190.0389	0.3168
190.257	0.141
190.475	0.377
190.6931	0.1292
190.9111	0.2231
191.1292	0.2075
191.3472	0.3334
191.5652	0.2776
191.7832	0.3528
192.0012	0.4235
192.2192	0.3872
192.4371	0.495
192.6551	0.4275
192.873	0.2993
193.091	0.4662
193.3089	0.569
193.5268	0.5422
193.7447	0.5962
193.9626	0.491
194.1805	0.4955
194.3984	0.6526
194.6162	0.5092
194.8341	0.5089
195.0519	0.6174
195.2697	0.5572
195.4875	0.5314
195.7054	0.598
195.9231	0.5194
196.1409	0.6127
196.3587	0.5949
196.5765	0.5609
196.7942	0.7378
197.012	0.6333
197.2297	0.7631
197.4474	0.7374
197.6651	0.6878
197.8828	0.7379
198.1005	0.7476
198.3182	0.6162
198.5358	0.8007
198.7535	0.7023
198.9711	0.7668
199.1888	0.7172
199.4064	0.7852
199.624	0.6435
199.8416	0.8369
200.0592	0.7319
200.2767	0.86
200.4943	0.8166
200.7119	0.8031
200.9294	0.9391
201.1469	0.8376
201.3645	0.7907
201.582	0.904
201.7995	0.7612
202.017	0.9448
202.2344	0.8398
202.4519	0.8989
202.6694	0.8305
202.8868	0.9072
203.1042	0.9178
203.3217	0.9599
203.5391	1.0097
203.7565	0.8657
203.9739	0.9084
204.1913	0.7961
204.4086	0.9135
204.626	0.9774
204.8433	0.8776
205.0607	0.8942
205.278	0.9172
205.4953	0.9623
205.7126	0.9138
205.9299	0.9445
206.1472	0.9656
206.3644	0.8964
206.5817	0.991
206.7989	1.0328
207.0162	1.0488
207.2334	0.9476
207.4506	0.9098
207.6678	1.0631
207.885	1.1159
208.1022	1.0409
208.3194	0.9969
208.5365	1.0557
208.7537	1.0212
208.9708	1.0641
209.1879	1.0658
209.405	1.0165
209.6222	1.1101
209.8392	1.0664
210.0563	0.9595
210.2734	1.0767
210.4905	1.1278
210.7075	1.044
210.9245	1.0575
211.1416	1.0237
211.3586	1.0445
211.5756	1.1004
211.7926	1.0347
212.0096	1.0155
212.2265	1.0108
212.4435	1.0548
212.6604	1.0547
212.8774	0.9901
213.0943	1.0019
213.3112	1.0596
213.5281	1.0387
213.745	1.0118
213.9619	0.9354
214.1788	0.9663
214.3956	0.9344
214.6125	0.914
214.8293	0.8576
215.0461	0.9081
215.2629	0.8417
215.4798	0.8515
215.6965	0.8348
215.9133	0.8236
216.1301	0.823
216.3469	0.7725
216.5636	0.7748
216.7803	0.7229
216.9971	0.7264
217.2138	0.7235
217.4305	0.6993
217.6472	0.6631
217.8639	0.6561
218.0805	0.6093
218.2972	0.5519
218.5138	0.5136
218.7305	0.5055
218.9471	0.4609
219.1637	0.4445
219.3803	0.4293
219.5969	0.3907
219.8135	0.3689
220.0301	0.3436
220.2466	0.3454
220.4632	0.3465
220.6797	0.314
220.8962	0.3052
221.1127	0.3011
221.3292	0.2878
221.5457	0.2918
221.7622	0.2878
221.9787	0.2842
222.1951	0.2929
222.4116	0.2746
222.628	0.262
222.8444	0.2798
223.0608	0.2663
223.2772	0.2575
223.4936	0.2647
223.71	0.274
223.9264	0.2639
224.1427	0.2606
224.3591	0.2714
224.5754	0.2658
224.7917	0.2641
225.008	0.2867
225.2243	0.2623
225.4406	0.2836
225.6569	0.271
225.8732	0.2946
226.0894	0.279
226.3057	0.2971
226.5219	0.298
226.7381	0.2875
226.9543	0.2791
227.1705	0.2825
227.3867	0.2873
227.6029	0.2974
227.8191	0.3051
228.0352	0.3019
228.2513	0.314
228.4675	0.303
228.6836	0.3149
228.8997	0.3201
229.1158	0.3183
229.3319	0.3182
229.548	0.3047
229.764	0.3158
229.9801	0.322
230.1961	0.328
230.4121	0.3366
230.6282	0.3378
230.8442	0.3438
231.0602	0.3536
231.2761	0.351
231.4921	0.3545
231.7081	0.3507
231.924	0.3615
232.14	0.3569
232.3559	0.3564
232.5718	0.3596
232.7877	0.3553
233.0036	0.3635
233.2195	0.3557
233.4353	0.3613
233.6512	0.3684
233.867	0.365
234.0829	0.3757
234.2987	0.3747
234.5145	0.3696
234.7303	0.3913
234.9461	0.3915
235.1619	0.3921
235.3776	0.3811
235.5934	0.3979
235.8091	0.3809
236.0249	0.3959
236.2406	0.387
236.4563	0.3913
236.672	0.3947
236.8877	0.4125
237.1034	0.4032
237.319	0.4035
237.5347	0.4079
237.7503	0.4048
237.966	0.4135
238.1816	0.4083
238.3972	0.4154
238.6128	0.4035
238.8284	0.3989
239.0439	0.4045
239.2595	0.4325
239.475	0.4224
239.6906	0.4261
239.9061	0.4082
240.1216	0.4126
240.3371	0.4155
240.5526	0.4206
240.7681	0.4114
240.9836	0.4086
241.199	0.4116
241.4145	0.3893
241.6299	0.4108
241.8453	0.4016
242.0607	0.3896
242.2761	0.3824
242.4915	0.3753
242.7069	0.3859
242.9223	0.3675
243.1376	0.3665
243.353	0.3616
243.5683	0.3524
243.7836	0.35
243.9989	0.3516
244.2142	0.3338
244.4295	0.3411
244.6448	0.3336
244.86	0.3243
245.0753	0.3028
245.2905	0.2966
245.5057	0.3063
245.721	0.3042
245.9362	0.2794
246.1514	0.282
246.3665	0.2882
246.5817	0.2756
246.7969	0.2852
247.012	0.2771
247.2271	0.2656
247.4423	0.2694
247.6574	0.2631
247.8725	0.2559
248.0876	0.2569
248.3026	0.2496
248.5177	0.2446
248.7328	0.2319
248.9478	0.2379
249.1628	0.2438
249.3779	0.2338
249.5929	0.2293
249.8079	0.2283
250.0228	0.2252
250.2378	0.2271
250.4528	0.2223
250.6677	0.2206
250.8827	0.2133
251.0976	0.213
251.3125	0.2194
251.5274	0.2045
251.7423	0.2045
251.9572	0.2121
252.172	0.2007
252.3869	0.2018
252.6017	0.2107
252.8166	0.207
253.0314	0.2045
253.2462	0.2029
253.461	0.2028
253.6758	0.1979
253.8906	0.1969
254.1053	0.1983
254.3201	0.2024
254.5348	0.1994
254.7496	0.2037
254.9643	0.1962
255.179	0.1995
255.3937	0.2006
255.6083	0.2071
255.823	0.1937
256.0377	0.1857
256.2523	0.1946
256.467	0.1937
256.6816	0.1949
256.8962	0.1978
257.1108	0.1951
257.3254	0.1963
257.54	0.1972
257.7545	0.1915
257.9691	0.2006
258.1836	0.1909
258.3981	0.2001
258.6127	0.1972
258.8272	0.1912
259.0417	0.1881
259.2561	0.1935
259.4706	0.1829
259.6851	0.1959
259.8995	0.1917
260.114	0.1878
260.3284	0.2038
260.5428	0.1917
260.7572	0.1949
260.9716	0.1972
261.186	0.204
261.4003	0.2073
261.6147	0.1942
261.829	0.206
262.0433	0.2003
262.2577	0.1997
262.472	0.2001
262.6863	0.1942
262.9005	0.2009
263.1148	0.1945
263.3291	0.1835
263.5433	0.1901
263.7576	0.1924
263.9718	0.1884
264.186	0.187
264.4002	0.1851
264.6144	0.188
264.8286	0.1788
265.0427	0.181
265.2569	0.1893
265.471	0.1772
265.6851	0.1718
265.8993	0.1794
266.1134	0.1689
266.3275	0.1819
266.5415	0.1776
266.7556	0.1811
266.9697	0.1795
267.1837	0.1826
267.3978	0.1884
267.6118	0.1913
267.8258	0.1915
268.0398	0.1903
268.2538	0.1907
268.4677	0.1874
268.6817	0.1932
268.8957	0.1976
269.1096	0.1861
269.3235	0.1822
269.5374	0.1762
269.7514	0.1695
269.9652	0.1671
270.1791	0.1651
270.393	0.1537
270.6068	0.147
270.8207	0.1534
271.0345	0.1533
271.2483	0.1525
271.4622	0.1516
271.676	0.1481
271.8897	0.1478
272.1035	0.1422
272.3173	0.1507
272.531	0.1464
272.7448	0.1433
272.9585	0.1482
273.1722	0.1417
273.3859	0.137
273.5996	0.1362
273.8133	0.1421
274.0269	0.1499
274.2406	0.1414
274.4542	0.1464
274.6679	0.1415
274.8815	0.146
275.0951	0.1462
275.3087	0.1415
275.5223	0.1411
275.7358	0.1431
275.9494	0.1537
276.1629	0.1511
276.3765	0.1365
276.59	0.1396
276.8035	0.1504
277.017	0.1423
277.2305	0.1465
277.444	0.1419
277.6574	0.1444
277.8709	0.1518
278.0843	0.1511
278.2978	0.1462
278.5112	0.1532
278.7246	0.1403
278.938	0.1461
279.1513	0.1525
279.3647	0.1486
279.5781	0.1547
279.7914	0.1523
280.0047	0.1573
280.2181	0.1515
280.4314	0.1492
280.6447	0.1533
280.8579	0.1554
281.0712	0.1504
281.2845	0.1486
281.4977	0.1525
281.711	0.159
281.9242	0.1571
282.1374	0.1531
282.3506	0.1454
282.5638	0.1549
282.7769	0.1556
282.9901	0.1453
283.2033	0.1506
283.4164	0.1564
283.6295	0.156
283.8426	0.1575
284.0557	0.1449
284.2688	0.1582
284.4819	0.159
284.695	0.1539
284.908	0.1566
285.1211	0.1631
285.3341	0.1524
285.5471	0.1608
285.7601	0.1504
285.9731	0.1568
286.1861	0.1604
286.3991	0.1572
286.612	0.1622
286.825	0.1614
287.0379	0.1542
287.2508	0.1578
287.4637	0.1573
287.6766	0.1563
287.8895	0.1577
288.1024	0.1568
288.3152	0.1605
288.5281	0.165
288.7409	0.1503
288.9538	0.1508
289.1666	0.1601
289.3794	0.1535
289.5922	0.159
289.8049	0.154
290.0177	0.1622
290.2304	0.1524
290.4432	0.1579
290.6559	0.1563
290.8686	0.1691
291.0813	0.1597
291.294	0.1561
291.5067	0.1528
291.7194	0.1601
291.932	0.1563
292.1447	0.1582
292.3573	0.1547
292.5699	0.1667
292.7825	0.1618
292.9951	0.151
293.2077	0.1539
293.4203	0.153
293.6328	0.167
293.8454	0.1569
294.0579	0.1602
294.2704	0.1583
294.4829	0.1551
294.6954	0.1559
294.9079	0.1604
295.1204	0.156
295.3328	0.1554
295.5453	0.1465
295.7577	0.155
295.9701	0.155
296.1825	0.1587
296.3949	0.149
296.6073	0.1712
296.8197	0.1607
297.0321	0.16
297.2444	0.1531
297.4567	0.1493
297.6691	0.1567
297.8814	0.1493
298.0937	0.1537
298.306	0.1536
298.5182	0.1461
298.7305	0.155
298.9428	0.1484
299.155	0.1582
299.3672	0.155
299.5794	0.1574
299.7916	0.154
300.0038	0.1542
300.216	0.1559
300.4282	0.1567
300.6403	0.1528
300.8525	0.151
301.0646	0.1541
301.2767	0.158
301.4888	0.1493
301.7009	0.1553
301.913	0.1615
302.125	0.1485
302.3371	0.1554
302.5491	0.1527
302.7612	0.1508
302.9732	0.1557
303.1852	0.1538
303.3972	0.1575
303.6092	0.1533
303.8211	0.157
304.0331	0.1502
304.245	0.1549
304.457	0.1543
304.6689	0.1501
304.8808	0.1517
305.0927	0.1537
305.3046	0.146
305.5164	0.1535
305.7283	0.1479
305.9401	0.1468
306.152	0.1445
306.3638	0.1495
306.5756	0.1392
306.7874	0.1436
306.9992	0.1382
307.2109	0.1354
307.4227	0.1426
307.6344	0.1362
307.8462	0.1329
308.0579	0.1266
308.2696	0.1229
308.4813	0.1265
308.693	0.1297
308.9046	0.1216
309.1163	0.1157
309.328	0.1183
309.5396	0.1175
309.7512	0.1246
309.9628	0.1145
310.1744	0.1157
310.386	0.1136
310.5976	0.111
310.8091	0.1147
311.0207	0.1153
311.2322	0.114
311.4437	0.1229
311.6552	0.111
311.8667	0.1112
312.0782	0.1131
312.2897	0.1068
312.5012	0.1053
312.7126	0.1001
312.924	0.0998
313.1355	0.105
313.3469	0.1075
313.5583	0.1083
313.7696	0.0985
313.981	0.1013
314.1924	0.1006
314.4037	0.1002
314.6151	0.096
314.8264	0.1004
315.0377	0.0994
315.249	0.1032
315.4603	0.1018
315.6716	0.1
315.8828	0.104
316.0941	0.0981
316.3053	0.094
316.5165	0.089
316.7277	0.0932
316.9389	0.0955
317.1501	0.0916
317.3613	0.0923
317.5724	0.0926
317.7836	0.0915
317.9947	0.1003
318.2058	0.0995
318.417	0.0904
318.6281	0.1057
318.8391	0.0906
319.0502	0.0918
319.2613	0.0985
319.4723	0.1028
319.6834	0.0988
319.8944	0.1068
320.1054	0.0979
320.3164	0.0961
320.5274	0.098
320.7383	0.0971
320.9493	0.0892
321.1602	0.1014
321.3712	0.1069
321.5821	0.0959
321.793	0.0915
322.0039	0.0867
322.2148	0.0944
322.4257	0.1031
322.6365	0.0978
322.8474	0.0967
323.0582	0.1039
323.269	0.0992
323.4798	0.0934
323.6906	0.0963
323.9014	0.1025
324.1122	0.1021
324.3229	0.1016
324.5337	0.0895
324.7444	0.0948
324.9551	0.0971
325.1658	0.1042
325.3765	0.0992
325.5872	0.0928
325.7979	0.1048
326.0085	0.1044
326.2192	0.1084
326.4298	0.1075
326.6404	0.0988
326.851	0.0994
327.0616	0.1018
327.2722	0.1045
327.4828	0.1014
327.6933	0.1044
327.9039	0.1043
328.1144	0.1056
328.3249	0.1093
328.5354	0.1003
328.7459	0.1072
328.9564	0.0978
329.1669	0.0984
329.3773	0.1042
329.5878	0.1104
329.7982	0.1075
330.0086	0.1058
330.219	0.1053
330.4294	0.1004
330.6398	0.1135
330.8502	0.1086
331.0605	0.1035
331.2708	0.1098
331.4812	0.1004
331.6915	0.104
331.9018	0.0964
332.1121	0.1058
332.3224	0.1098
332.5326	0.0959
332.7429	0.1137
332.9531	0.1058
333.1633	0.1175
333.3735	0.1125
333.5837	0.104
333.7939	0.1073
334.0041	0.1074
334.2143	0.1013
334.4244	0.1091
334.6346	0.1042
334.8447	0.1046
335.0548	0.104
335.2649	0.1
335.475	0.1029
335.685	0.1119
335.8951	0.1195
336.1051	0.1122
336.3152	0.1092
336.5252	0.1054
336.7352	0.1079
336.9452	0.1116
337.1552	0.107
337.3652	0.1097
337.5751	0.1065
337.7851	0.1055
337.995	0.1129
338.2049	0.1087
338.4148	0.1135
338.6247	0.1137
338.8346	0.1076
339.0445	0.1105
339.2543	0.1102
339.4642	0.1109
339.674	0.1089
339.8838	0.1083
340.0936	0.112
340.3034	0.1262
340.5132	0.1081
340.7229	0.1227
340.9327	0.1134
341.1424	0.1085
341.3522	0.1169
341.5619	0.123
341.7716	0.1213
341.9813	0.1224
342.1909	0.1217
342.4006	0.1137
342.6102	0.1161
342.8199	0.1234
343.0295	0.1213
343.2391	0.1203
343.4487	0.1217
343.6583	0.1258
343.8679	0.1273
344.0774	0.1268
344.287	0.127
344.4965	0.1324
344.706	0.1271
344.9155	0.1302
345.125	0.1301
345.3345	0.1273
345.544	0.1184
345.7534	0.1265
345.9629	0.1272
346.1723	0.1253
346.3817	0.128
346.5911	0.1274
346.8005	0.1369
347.0099	0.1261
347.2193	0.1392
347.4286	0.1354
347.638	0.1407
347.8473	0.1291
348.0566	0.1311
348.2659	0.1191
348.4752	0.1304
348.6845	0.1414
348.8937	0.1317
349.103	0.1293
349.3122	0.13
349.5214	0.1341
349.7306	0.1278
349.9398	0.1347
350.149	0.132
350.3582	0.1322
350.5674	0.1326
350.7765	0.1325
350.9856	0.1312
351.1948	0.1373
351.4039	0.1334
351.613	0.1335
351.822	0.1364
352.0311	0.138
352.2402	0.1413
352.4492	0.1385
352.6582	0.1479
352.8672	0.1466
353.0762	0.1499
353.2852	0.1524
353.4942	0.1417
353.7032	0.1414
353.9121	0.1442
354.1211	0.1419
354.33	0.1497
354.5389	0.1451
354.7478	0.1439
354.9567	0.142
355.1655	0.1445
355.3744	0.1496
355.5833	0.1523
355.7921	0.1542
356.0009	0.1488
356.2097	0.1459
356.4185	0.1527
356.6273	0.1557
356.8361	0.1477
357.0448	0.1617
357.2536	0.151
357.4623	0.1525
357.671	0.16
357.8797	0.1658
358.0884	0.1629
358.2971	0.1639
358.5057	0.1651
358.7144	0.1583
358.923	0.1818
359.1316	0.1567
359.3402	0.1708
359.5488	0.156
359.7574	0.1772
359.966	0.1699
360.1746	0.174
360.3831	0.1737
360.5916	0.1743
360.8002	0.1773
361.0087	0.1742
361.2172	0.1685
361.4256	0.1732
361.6341	0.1802
361.8426	0.1801
362.051	0.164
362.2594	0.184
362.4678	0.186
362.6762	0.1838
362.8846	0.185
363.093	0.1734
363.3014	0.1775
363.5097	0.1785
363.718	0.1856
363.9264	0.1829
364.1347	0.1958
364.343	0.186
364.5513	0.1878
364.7595	0.1952
364.9678	0.1819
365.176	0.1889
365.3842	0.1905
365.5925	0.1883
365.8007	0.1887
366.0089	0.1907
366.217	0.1911
366.4252	0.1966
366.6333	0.1853
366.8415	0.1903
367.0496	0.1926
367.2577	0.1967
367.4658	0.2021
367.6739	0.1965
367.882	0.2027
368.09	0.2003
368.2981	0.2067
368.5061	0.1962
368.7141	0.1994
368.9221	0.1902
369.1301	0.212
369.3381	0.2063
369.5461	0.208
369.754	0.2066
369.962	0.2016
370.1699	0.209
370.3778	0.21
370.5857	0.2079
370.7936	0.2062
371.0015	0.2107
371.2093	0.2029
371.4172	0.2083
371.625	0.204
371.8328	0.2222
372.0406	0.2266
372.2484	0.2139
372.4562	0.2055
372.664	0.2216
372.8717	0.2106
373.0795	0.2156
373.2872	0.2216
373.4949	0.2059
373.7026	0.2164
373.9103	0.2146
374.118	0.2119
374.3256	0.2216
374.5333	0.207
374.7409	0.2172
374.9485	0.2147
375.1561	0.2206
375.3637	0.2253
375.5713	0.2212
375.7789	0.2113
375.9864	0.2222
376.194	0.219
376.4015	0.225
376.609	0.2361
376.8165	0.2215
377.024	0.2192
377.2315	0.2282
377.4389	0.219
377.6464	0.2314
377.8538	0.2256
378.0612	0.223
378.2686	0.2223
378.476	0.2297
378.6834	0.2361
378.8908	0.2358
379.0981	0.2351
379.3055	0.2368
379.5128	0.2282
379.7201	0.2249
379.9274	0.2265
380.1347	0.248
380.342	0.2353
380.5492	0.2391
380.7565	0.2315
380.9637	0.2386
381.1709	0.2401
381.3781	0.2344
381.5853	0.2355
381.7925	0.2411
381.9997	0.2402
382.2068	0.2439
382.4139	0.2511
382.6211	0.24
382.8282	0.2503
383.0353	0.2337
383.2424	0.2399
383.4494	0.2476
383.6565	0.2343
383.8635	0.2547
384.0706	0.2407
384.2776	0.2405
384.4846	0.2489
384.6916	0.2347
384.8986	0.2395
385.1055	0.2409
385.3125	0.2486
385.5194	0.2445
385.7263	0.2519
385.9333	0.2412
386.1402	0.2564
386.347	0.2546
386.5539	0.2481
386.7608	0.2422
386.9676	0.2403
387.1744	0.2396
387.3813	0.2407
387.5881	0.2435
387.7948	0.2404
388.0016	0.2338
388.2084	0.2501
388.4151	0.2432
388.6219	0.2461
388.8286	0.2426
389.0353	0.2399
389.242	0.2353
389.4487	0.2376
389.6553	0.2352
389.862	0.2317
390.0686	0.2287
390.2753	0.2422
390.4819	0.2343
390.6885	0.2408
390.8951	0.2448
391.1016	0.2318
391.3082	0.2306
391.5147	0.2323
391.7213	0.2314
391.9278	0.2302
392.1343	0.2267
392.3408	0.2198
392.5473	0.2274
392.7537	0.2253
392.9602	0.2173
393.1666	0.2142
393.373	0.2242
393.5794	0.2249
393.7858	0.2131
393.9922	0.2096
394.1986	0.2124
394.4049	0.2255
394.6113	0.2242
394.8176	0.2005
395.0239	0.2041
395.2302	0.2069
395.4365	0.2184
395.6428	0.2013
395.8491	0.203
396.0553	0.2127
396.2615	0.2033
396.4678	0.2077
396.674	0.2074
396.8802	0.2094
397.0863	0.2085
397.2925	0.1994
397.4987	0.1995
397.7048	0.2025
397.9109	0.2086
398.117	0.1967
398.3231	0.2138
398.5292	0.2013
398.7353	0.1985
398.9413	0.199
399.1474	0.1941
399.3534	0.2003
399.5594	0.1973
399.7654	0.2015
399.9714	0.1959
400.1774	0.1992
400.3833	0.2104
400.5893	0.1991
400.7952	0.1924
401.0011	0.2036
401.207	0.1937
401.4129	0.1928
401.6188	0.1904
401.8247	0.195
402.0305	0.2009
402.2364	0.2014
402.4422	0.1936
402.648	0.2026
402.8538	0.1958
403.0596	0.19
403.2654	0.2053
403.4711	0.1973
403.6768	0.2036
403.8826	0.1999
404.0883	0.2037
404.294	0.2057
404.4997	0.1974
404.7054	0.1997
404.911	0.1996
405.1167	0.2092
405.3223	0.2053
405.5279	0.2017
405.7335	0.1954
405.9391	0.2069
406.1447	0.2054
406.3502	0.1959
406.5558	0.1979
406.7613	0.19
406.9668	0.207
407.1724	0.1912
407.3778	0.2088
407.5833	0.1928
407.7888	0.2213
407.9942	0.1935
408.1997	0.2042
408.4051	0.1949
408.6105	0.1996
408.8159	0.2085
409.0213	0.1906
409.2267	0.1926
409.432	0.2129
409.6374	0.1959
409.8427	0.2048
410.048	0.1994
410.2533	0.2009
410.4586	0.2032
410.6639	0.1867
410.8691	0.1985
411.0744	0.1996
411.2796	0.1977
411.4848	0.1862
411.69	0.2048
411.8952	0.1945
412.1004	0.1867
412.3056	0.1968
412.5107	0.2039
412.7158	0.1989
412.921	0.1953
413.1261	0.1863
413.3312	0.2052
413.5362	0.1877
413.7413	0.1956
413.9464	0.198
414.1514	0.1817
414.3564	0.1979
414.5614	0.1976
414.7664	0.1989
414.9714	0.1883
415.1764	0.2035
415.3813	0.1942
415.5863	0.1869
415.7912	0.2052
415.9961	0.1908
416.201	0.1923
416.4059	0.1925
416.6108	0.1946
416.8156	0.1824
417.0205	0.1903
417.2253	0.1836
417.4301	0.1953
417.6349	0.2037
417.8397	0.1905
418.0445	0.1974
418.2492	0.1808
418.454	0.1938
418.6587	0.1905
418.8634	0.1766
419.0681	0.1853
419.2728	0.1883
419.4775	0.1742
419.6822	0.1815
419.8868	0.1869
420.0915	0.1824
420.2961	0.1867
420.5007	0.1901
420.7053	0.1813
420.9099	0.1829
421.1144	0.179
421.319	0.1732
421.5235	0.1866
421.728	0.178
421.9325	0.1663
422.137	0.1768
422.3415	0.1784
422.546	0.1818
422.7504	0.178
422.9549	0.1733
423.1593	0.1769
423.3637	0.1806
423.5681	0.1775
423.7725	0.1779
423.9769	0.1642
424.1812	0.1663
424.3856	0.1651
424.5899	0.1708
424.7942	0.1693
424.9985	0.1718
425.2028	0.1608
425.4071	0.1656
425.6113	0.1587
425.8156	0.1577
426.0198	0.1734
426.224	0.1416
426.4282	0.1552
426.6324	0.1597
426.8366	0.1606
427.0407	0.1587
427.2449	0.1599
427.449	0.1515
427.6531	0.1578
427.8572	0.1424
428.0613	0.1512
428.2654	0.1445
428.4694	0.1473
428.6735	0.1591
428.8775	0.147
429.0815	0.1497
429.2855	0.1615
429.4895	0.1436
429.6935	0.1416
429.8975	0.1362
430.1014	0.1375
430.3053	0.1447
430.5093	0.1427
430.7132	0.1367
430.9171	0.1292
431.1209	0.1367
431.3248	0.1382
431.5286	0.1325
431.7325	0.1164
431.9363	0.1287
432.1401	0.132
432.3439	0.1233
432.5477	0.1339
432.7514	0.1186
432.9552	0.1101
433.1589	0.1044
433.3627	0.1196
433.5664	0.121
433.7701	0.1124
433.9737	0.1105
434.1774	0.1047
434.3811	0.0982
434.5847	0.1048
434.7883	0.0978
434.9919	0.1033
435.1955	0.0826
435.3991	0.0964
435.6027	0.0901
435.8062	0.1082
436.0098	0.1021
436.2133	0.0901
436.4168	0.1048
436.6203	0.0967
436.8238	0.0868
437.0272	0.09
437.2307	0.0934
437.4341	0.0895
437.6375	0.0822
437.841	0.0793
438.0443	0.0819
438.2477	0.0895
438.4511	0.0841
438.6545	0.081
438.8578	0.0729
439.0611	0.072
439.2644	0.0922
439.4677	0.0731
439.671	0.0766
439.8743	0.075
440.0775	0.0686
440.2808	0.0544
440.484	0.0724
440.6872	0.0667
440.8904	0.0648
441.0936	0.0681
441.2967	0.0608
441.4999	0.0572
441.703	0.0585
441.9062	0.0624
442.1093	0.0546
442.3124	0.0507
442.5155	0.0584
442.7185	0.0517
442.9216	0.0543
443.1246	0.0613
443.3276	0.0561
443.5307	0.0391
443.7337	0.0555
443.9366	0.0527
444.1396	0.0518
444.3426	0.0473
444.5455	0.039
444.7484	0.032
444.9513	0.0435
445.1542	0.0553
445.3571	0.0355
445.56	0.037
445.7628	0.0326
445.9657	0.0494
446.1685	0.0428
446.3713	0.0325
446.5741	0.043
446.7769	0.0379
446.9797	0.0336
447.1824	0.0333
447.3852	0.0292
447.5879	0.0365
447.7906	0.0367
447.9933	0.0281
448.196	0.0374
448.3986	0.0266
448.6013	0.0244
448.8039	0.026
449.0066	0.034
449.2092	0.0194
449.4118	0.0275
449.6143	0.022
449.8169	0.0126
450.0195	0.0177
450.222	0.0143
450.4245	0.0216
450.627	0.0186
450.8295	0.0259
451.032	0.0213
451.2345	0.0177
451.4369	0.019
451.6394	0.0144
451.8418	0.0151
452.0442	0.0125
452.2466	0.0189
452.449	0.0239
452.6513	0.0167
452.8537	0.0205
453.056	0.0147
453.2583	0.0124
453.4607	0.0234
453.663	0.0168
453.8652	0.018
454.0675	0.0139
454.2697	0.0159
454.472	0.016
454.6742	0.0123
454.8764	0.0088
455.0786	0.0166
455.2808	0.0045
455.4829	0.0069
455.6851	0.0065
455.8872	0.0062
456.0893	-0.0016
456.2915	-0.0027
456.4935	-0.0011
456.6956	0.0065
456.8977	0.006
457.0997	-0.0051
457.3018	0.0076
457.5038	0.003
457.7058	0.0064
457.9078	0.0093
458.1098	0.0031
458.3117	0.0069
458.5137	0.0019
458.7156	0.0052
458.9175	0.0074
459.1194	0.009
459.3213	0.0073
459.5232	0.0094
459.725	-0.0009
459.9269	0.0105
460.1287	0.0081
460.3305	0.0045
460.5323	0.0114
460.7341	0.0047
460.9359	-0.0047
461.1376	0.0029
461.3394	0.002
461.5411	0.0037
461.7428	-0.0053
461.9445	0.0006
462.1462	0.0028
462.3479	0.0039
462.5495	-0.0009
462.7512	-0.0009
462.9528	-0.004
463.1544	-0.0026
463.356	-0.0088
463.5576	-0.0036
463.7592	-0.0006
463.9607	0.0004
464.1623	0.0026
464.3638	-0.0005
464.5653	0.0064
464.7668	-0.0023
464.9683	0.0072
465.1697	0.0016
465.3712	-0.0007
465.5726	0.0001
465.7741	-0.0087
465.9755	-0.0056
466.1769	-0.0216
466.3782	-0.0117
466.5796	-0.0082
466.7809	0.0003
466.9823	-0.0039
467.1836	0.0002
467.3849	0.0012
467.5862	-0.0109
467.7875	-0.0057
467.9887	-0.0063
468.19	-0.0146
468.3912	0.0005
468.5924	-0.0065
468.7936	-0.0105
468.9948	0.0003
469.196	-0.0036
469.3972	-0.0023
469.5983	0.0102
469.7994	-0.0034
470.0006	-0.008
470.2017	0.0021
470.4027	-0.0001
470.6038	0.0004
470.8049	-0.0065
471.0059	-0.0022
471.2069	0.0092
471.408	0.0038
471.6089	-0.0068
471.8099	-0.0094
472.0109	-0.0102
472.2119	-0.0112
472.4128	-0.005
472.6137	-0.0097
472.8146	-0.0149
473.0155	-0.006
473.2164	-0.0243
473.4173	-0.0118
473.6181	0.0073
473.819	-0.0105
474.0198	0.0004
474.2206	-0.0008
474.4214	-0.0014
474.6222	-0.0057
474.8229	-0.0134
475.0237	0.003
475.2244	-0.0041
475.4251	-0.0037
475.6258	0.0031
475.8265	-0.0015
476.0272	-0.0009
476.2278	-0.0037
476.4285	-0.0034
476.6291	-0.0041
476.8297	-0.0041
477.0303	0.0012
477.2309	-0.0064
477.4315	-0.002
477.632	-0.0143
477.8326	-0.0083
478.0331	-0.0052
478.2336	-0.0047
478.4341	-0.0124
478.6346	-0.0029
478.8351	-0.0038
479.0355	-0.0074
479.236	-0.0076
479.4364	-0.0129
479.6368	0.0057
479.8372	-0.0056
480.0376	-0.0033
480.2379	0.0011
480.4383	-0.0067
480.6386	-0.0149
480.8389	-0.0125
481.0392	-0.0068
481.2395	-0.0069
481.4398	-0.0027
481.6401	-0.0085
481.8403	-0.0021
482.0405	-0.0102
482.2408	-0.0033
482.441	-0.0058
482.6411	0.0023
482.8413	-0.0082
483.0415	-0.0047
483.2416	0.0007
483.4417	-0.0151
483.6419	-0.0048
483.8419	-0.0072
484.042	-0.0046
484.2421	-0.0001
484.4422	-0.013
484.6422	-0.0129
484.8422	-0.0114
485.0422	-0.0053
485.2422	-0.0053
485.4422	-0.0064
485.6422	-0.0012
485.8421	-0.0053
486.042	-0.0032
486.242	-0.0035
486.4419	-0.006
486.6417	-0.011
486.8416	-0.0034
487.0415	-0.0005
487.2413	-0.0024
487.4411	-0.003
487.641	-0.0035
487.8408	-0.0077
488.0405	-0.0071
488.2403	-0.0016
488.4401	-0.0104
488.6398	-0.0084
488.8395	-0.008
489.0392	-0.0063
489.2389	-0.0062
489.4386	-0.0045
489.6383	-0.0074
489.8379	-0.0044
490.0376	-0.0062
490.2372	-0.002
490.4368	-0.0095
490.6364	-0.0056
490.836	-0.0147
491.0355	-0.0042
491.2351	-0.0103
491.4346	-0.0104
491.6341	-0.0068
491.8336	-0.0171
492.0331	-0.0099
492.2326	-0.0087
492.432	-0.0049
492.6315	-0.0003
492.8309	-0.005
493.0303	-0.0081
493.2297	-0.0043
493.4291	-0.0125
493.6284	-0.0053
493.8278	-0.0031
494.0271	-0.0049
494.2264	-0.0069
494.4257	-0.0027
494.625	-0.0028
494.8243	-0.0071
495.0236	-0.0143
495.2228	-0.0074
495.422	-0.0107
495.6213	-0.0112
495.8205	0.0007
496.0196	-0.0075
496.2188	-0.0055
496.418	-0.0042
496.6171	-0.0007
496.8162	-0.0062
497.0153	0.0004
497.2144	-0.0063
497.4135	-0.0069
497.6126	-0.0025
497.8116	-0.0014
498.0107	-0.0078
498.2097	-0.008
498.4087	-0.01
498.6077	-0.0061
498.8067	-0.0134
499.0056	-0.0029
499.2046	-0.0008
499.4035	-0.0066
499.6024	-0.0073
499.8013	0.0011
500.0002	-0.0065
500.199	-0.0082
500.3979	0.0008
500.5967	-0.013
500.7956	-0.0122
500.9944	-0.0069
501.1932	-0.0038
501.3919	-0.013
501.5907	-0.0049
501.7895	-0.0053
501.9882	-0.0128
502.1869	-0.0095
502.3856	-0.0085
502.5843	-0.0094
502.783	-0.0063
502.9816	-0.008
503.1803	-0.0069
503.3789	-0.0002
503.5775	-0.0036
503.7761	-0.0086
503.9747	-0.0061
504.1732	-0.0085
504.3718	-0.0001
504.5703	-0.006
504.7689	0.0015
504.9674	-0.0041
505.1658	-0.0126
505.3643	-0.0059
505.5628	0.0068
505.7612	-0.0088
505.9597	-0.0065
506.1581	-0.0088
506.3565	-0.0039
506.5549	-0.0084
506.7532	-0.0076
506.9516	0.0031
507.1499	-0.0038
507.3482	0.0019
507.5465	-0.002
507.7448	-0.0044
507.9431	-0.0002
508.1414	-0.0093
508.3396	-0.0027
508.5379	-0.0073
508.7361	0.0013
508.9343	-0.0057
509.1325	-0.0062
509.3306	-0.0052
509.5288	-0.0047
509.7269	-0.0116
509.9251	-0.0025
510.1232	-0.0082
510.3213	-0.0162
510.5193	0.0007
510.7174	0.0019
510.9154	-0.0066
511.1135	-0.0137
511.3115	-0.006
511.5095	-0.0096
511.7075	-0.0039
511.9055	-0.006
512.1034	-0.0097
512.3014	-0.0053
512.4993	-0.0064
512.6972	-0.0015
512.8951	-0.0075
513.093	-0.0078
513.2908	-0.0027
513.4887	-0.0054
513.6865	-0.007
513.8844	-0.0015
514.0822	-0.0053
514.2799	-0.0062
514.4777	-0.0073
514.6755	-0.0015
514.8732	-0.0128
515.0709	-0.0115
515.2687	-0.0051
515.4664	-0.0053
515.664	-0.0043
515.8617	-0.0062
516.0594	-0.0064
516.257	-0.0013
516.4546	-0.0152
516.6522	-0.0099
516.8498	-0.0164
517.0474	-0.005
517.2449	-0.0081
517.4425	-0.0053
517.64	-0.0023
517.8375	-0.0095
518.035	-0.0037
518.2325	-0.0092
518.43	-0.0058
518.6274	-0.008
518.8249	-0.0058
519.0223	-0.0137
519.2197	-0.0059
519.4171	-0.0084
519.6145	-0.0006
519.8118	-0.0175
520.0092	-0.0077
520.2065	-0.0145
520.4038	-0.009
520.6011	-0.0049
520.7984	-0.0087
520.9956	-0.0042
521.1929	-0.0107
521.3901	-0.0131
521.5874	-0.0048
521.7846	0.0004
521.9818	-0.0015
522.1789	-0.0082
522.3761	-0.0073
522.5732	-0.0073
522.7704	-0.0047
522.9675	-0.0067
523.1646	-0.0032
523.3617	-0.0069
523.5587	-0.0096
523.7558	-0.0029
523.9528	-0.0071
524.1498	-0.0075
524.3468	0.001
524.5438	-0.0097
524.7408	-0.0158
524.9378	-0.0067
525.1347	0.0014
525.3316	-0.0031
525.5285	-0.0037
525.7254	-0.0021
525.9223	-0.0034
526.1192	-0.0062
526.316	-0.0044
526.5129	0.0005
526.7097	-0.0094
526.9065	0.0019
527.1033	-0.007
527.3	-0.0054
527.4968	-0.0113
527.6935	-0.0043
527.8903	-0.0008
528.087	-0.0128
528.2837	0.0011
528.4804	-0.0045
528.677	-0.0018
528.8737	-0.0108
529.0703	-0.0035
529.2669	-0.0009
529.4635	-0.0034
529.6601	-0.0048
529.8567	-0.0051
530.0532	-0.0039
530.2498	-0.0079
530.4463	-0.0018
530.6428	0.0029
530.8393	-0.0049
531.0358	-0.012
531.2322	-0.0019
531.4287	-0.0144
531.6251	-0.0059
531.8215	-0.0002
532.0179	-0.0054
532.2143	0.0005
532.4107	-0.0001
532.607	-0.0099
532.8034	-0.0062
532.9997	-0.0034
533.196	-0.0067
533.3923	-0.0003
533.5886	-0.004
533.7848	-0.0035
533.9811	0.0005
534.1773	-0.0096
534.3735	-0.0074
534.5697	-0.0057
534.7659	-0.0081
534.9621	0.0038
535.1582	-0.0066
535.3544	-0.0058
535.5505	-0.0073
535.7466	-0.0059
535.9427	0.0009
536.1387	-0.0084
536.3348	0.0056
536.5308	-0.0076
536.7269	-0.0025
536.9229	-0.0022
537.1189	-0.0147
537.3148	-0.0044
537.5108	-0.0009
537.7068	-0.0047
537.9027	-0.0104
538.0986	0.0024
538.2945	-0.0034
538.4904	-0.018
538.6863	-0.0044
538.8821	-0.0054
539.078	-0.0099
539.2738	-0.0095
539.4696	-0.0109
539.6654	-0.0064
539.8611	-0.0086
540.0569	-0.0088
540.2526	-0.0042
540.4484	0.0078
540.6441	-0.0005
540.8398	-0.0038
541.0355	-0.0044
541.2311	-0.0008
541.4268	-0.0039
541.6224	0.0007
541.818	-0.0028
542.0136	-0.0059
542.2092	-0.0041
542.4048	-0.0018
542.6003	-0.0056
542.7959	-0.0014
542.9914	-0.0058
543.1869	-0.003
543.3824	-0.0125
543.5779	-0.0103
543.7734	-0.0085
543.9688	-0.0144
544.1642	-0.0083
544.3596	-0.0071
544.555	-0.0053
544.7504	-0.0056
544.9458	-0.0043
545.1411	0.003
545.3365	-0.0033
545.5318	0.0015
545.7271	0.002
545.9224	-0.002
546.1177	-0.0093
546.3129	-0.0017
546.5081	-0.0029
546.7034	-0.0098
546.8986	-0.0077
547.0938	-0.007
547.289	-0.0075
547.4841	-0.0075
547.6793	-0.007
547.8744	0.0028
548.0695	-0.0056
548.2646	-0.0078
548.4597	-0.0074
548.6548	-0.0023
548.8498	-0.0053
549.0448	0.0045
549.2399	-0.0048
549.4349	0.0006
549.6298	-0.0089
549.8248	-0.0012
550.0198	-0.0098
550.2147	-0.0005
550.4096	-0.0024
550.6045	-0.0038
550.7994	-0.0001
550.9943	0.0022
551.1892	0.0023
551.384	-0.0093
551.5788	-0.0093
551.7737	0.0016
551.9685	-0.0091
552.1632	-0.0097
552.358	-0.0088
552.5528	-0.0088
552.7475	-0.0096
552.9422	-0.0063
553.1369	-0.0066
553.3316	0.0016
553.5263	-0.0076
553.7209	-0.0041
553.9156	-0.0074
554.1102	-0.0098
554.3048	-0.0083
554.4994	-0.0056
554.694	-0.0024
554.8885	-0.0033
555.0831	-0.006
555.2776	-0.0021
555.4721	-0.006
555.6666	-0.0084
555.8611	-0.0019
556.0555	-0.0115
556.25	-0.0067
556.4444	-0.0082
556.6388	-0.0097
556.8332	-0.0027
557.0276	-0.0013
557.222	-0.0051
557.4163	0.0001
557.6107	-0.0092
557.805	-0.0052
557.9993	-0.0062
558.1936	-0.0025
558.3879	0.0082
558.5821	-0.0091
558.7764	-0.0114
558.9706	-0.004
559.1648	0.0001
559.359	-0.0101
559.5532	-0.0037
559.7473	-0.0121
559.9415	-0.0135
560.1356	-0.0081
560.3297	-0.0113
560.5238	-0.0106
560.7179	-0.0034
560.9119	-0.0001
561.106	-0.0073
561.3	-0.006
561.494	-0.0092
561.688	-0.0058
561.882	-0.0064
562.076	-0.005
562.2699	-0.0072
562.4639	-0.0054
562.6578	-0.0108
562.8517	-0.002
563.0456	-0.0058
563.2395	-0.0043
563.4333	-0.0045
563.6272	-0.0046
563.821	-0.0041
564.0148	0.0023
564.2086	-0.006
564.4024	0.0024
564.5961	-0.0034
564.7899	-0.0013
564.9836	-0.0008
565.1773	-0.0063
565.371	-0.0066
565.5647	-0.004
565.7584	0.0012
565.952	-0.0027
566.1456	-0.0016
566.3393	-0.0067
566.5329	-0.0052
566.7264	-0.0009
566.92	-0.0003
567.1136	-0.005
567.3071	-0.0018
567.5006	0.0002
567.6941	-0.0027
567.8876	-0.0061
568.0811	-0.0034
568.2745	-0.0047
568.468	-0.0072
568.6614	-0.007
568.8548	-0.0083
569.0482	-0.0065
569.2416	-0.0063
569.4349	-0.0034
569.6283	-0.0064
569.8216	-0.0093
570.0149	-0.0058
570.2082	-0.0026
570.4015	-0.0022
570.5947	-0.0024
570.788	-0.006
570.9812	-0.0042
571.1744	-0.0073
571.3676	-0.0044
571.5608	0.0001
571.754	-0.0027
571.9471	-0.0048
572.1402	-0.0034
572.3333	-0.0056
572.5264	-0.0032
572.7195	-0.0026
572.9126	-0.0029
573.1057	-0.0052
573.2987	0.0004
573.4917	-0.0072
573.6847	0.001
573.8777	-0.0073
574.0707	-0.0024
574.2636	-0.0061
574.4566	-0.0019
574.6495	-0.0063
574.8424	-0.0038
575.0353	-0.0025
575.2281	-0.0001
575.421	-0.0092
575.6138	-0.003
575.8067	-0.0032
575.9995	0.0001
576.1923	-0.0036
576.385	-0.0071
576.5778	0.0011
576.7706	0.0014
576.9633	-0.0026
577.156	0.0013
577.3487	-0.0005
577.5414	-0.0021
577.734	-0.001
577.9267	-0.0001
578.1193	-0.0049
578.3119	-0.0021
578.5045	-0.0057
578.6971	-0.0027
578.8897	-0.0063
579.0822	-0.0056
579.2747	0.0008
579.4673	-0.0018
579.6598	-0.0006
579.8522	-0.001
580.0447	-0.0051
580.2372	0.0024
580.4296	0.002
580.622	0.0013
580.8144	-0.0015
581.0068	-0.0016
581.1992	-0.0017
581.3915	-0.0012
581.5839	-0.0036
581.7762	-0.0058
581.9685	-0.0024
582.1608	-0.0059
582.353	0.0022
582.5453	-0.0099
582.7375	0.0032
582.9298	-0.007
583.122	0.0015
583.3142	-0.002
583.5063	-0.0022
583.6985	-0.0049
583.8906	-0.0077
584.0827	-0.0075
584.2749	-0.0066
584.4669	-0.0056
584.659	-0.0084
584.8511	-0.0016
585.0431	-0.0023
585.2352	-0.0052
585.4272	-0.0084
585.6192	-0.0068
585.8111	-0.0048
586.0031	-0.0018
586.195	-0.0044
586.387	0.0009
586.5789	-0.0036
586.7708	-0.0102
586.9627	-0.006
587.1545	-0.0041
587.3464	-0.0059
587.5382	-0.006
587.73	-0.0056
587.9218	-0.0039
588.1136	-0.0014
588.3053	-0.0031
588.4971	-0.0045
588.6888	-0.0039
588.8805	-0.0012
589.0722	0.0005
589.2639	-0.0019
589.4556	-0.0004
589.6472	-0.0043
589.8389	-0.0039
590.0305	-0.0056
590.2221	-0.0022
590.4137	-0.0014
590.6052	-0.0015
590.7968	-0.0038
590.9883	-0.003
591.1798	-0.0105
591.3713	-0.0006
591.5628	-0.0075
591.7543	-0.0014
591.9458	0.0004
592.1372	-0.0016
592.3286	-0.0019
592.52	-0.0067
592.7114	0.002
592.9028	-0.0023
593.0941	-0.0018
593.2855	0.0022
593.4768	-0.0018
593.6681	-0.0021
593.8594	-0.0017
594.0506	-0.0017
594.2419	-0.0025
594.4331	-0.006
594.6244	-0.0029
594.8156	-0.0073
595.0067	-0.0036
595.1979	-0.0029
595.3891	-0.0055
595.5802	-0.0101
595.7713	-0.0041
595.9624	0.0003
596.1535	-0.0036
596.3446	-0.0028
596.5357	-0.0027
596.7267	-0.0029
596.9177	0.0031
597.1087	0.0005
597.2997	-0.0008
597.4907	0.0015
597.6817	-0.0041
597.8726	-0.0015
598.0635	-0.0048
598.2544	-0.0011
598.4453	-0.0086
598.6362	-0.0096
598.827	-0.0095
599.0179	0.0001
599.2087	-0.0119
599.3995	-0.0096
599.5903	-0.0008
599.7811	-0.0048
599.9718	-0.0008
600.1626	-0.0037
600.3533	-0.0026
600.544	-0.0071
600.7347	0.0032
600.9254	-0.0025
601.116	-0.0042
601.3067	-0.004
601.4973	-0.0094
601.6879	-0.0058
601.8785	-0.0036
602.0691	-0.0012
602.2596	-0.002
602.4502	-0.0034
602.6407	-0.0019
602.8312	0.0009
603.0217	-0.0013
603.2122	-0.0061
603.4027	-0.0042
603.5931	-0.0029
603.7835	-0.0003
603.9739	-0.0022
604.1643	-0.0019
604.3547	-0.0025
604.5451	-0.0048
604.7354	-0.0003
604.9257	-0.0034
605.116	-0.0044
605.3063	-0.0034
605.4966	-0.002
605.6869	-0.0052
605.8771	-0.0031
606.0673	-0.0026
606.2575	-0.0057
606.4477	-0.0068
606.6379	-0.0116
606.8281	-0.0065
607.0182	-0.0112
607.2083	-0.0039
607.3985	-0.0093
607.5885	-0.0024
607.7786	-0.0075
607.9687	-0.0035
608.1587	-0.0074
608.3488	-0.0023
608.5388	-0.0027
608.7288	-0.0089
608.9187	-0.0049
609.1087	-0.0054
609.2986	-0.0004
609.4886	-0.0036
609.6785	0
609.8684	-0.0022
610.0582	0.0008
610.2481	-0.0036
610.4379	-0.0021
610.6278	0.0023
610.8176	-0.0025
611.0074	-0.0025
611.1971	0.005
611.3869	-0.0034
611.5766	0.0023
611.7664	0.0003
611.9561	0.0009
612.1458	-0.0006
612.3354	-0.0087
612.5251	-0.0057
612.7147	-0
612.9044	-0.0003
613.094	-0.0035
613.2836	-0.0042
613.4731	-0.0077
613.6627	-0.0059
613.8522	-0.0053
614.0417	-0.0048
614.2313	-0.0074
614.4207	-0.0014
614.6102	-0.0019
614.7997	-0.0028
614.9891	-0.0041
615.1785	-0.0061
615.3679	0.0007
615.5573	-0.0018
615.7467	-0.0012
615.9361	-0.0034
616.1254	-0.0053
616.3147	-0.004
616.504	-0.0021
616.6933	-0.002
616.8826	-0.0046
617.0718	-0.0053
617.2611	0.0014
617.4503	0.0003
617.6395	-0.0067
617.8287	-0.001
618.0179	0.0014
618.207	-0.0062
618.3961	-0.0021
618.5853	-0.0047
618.7744	-0.0006
618.9634	0.0003
619.1525	-0.0031
619.3416	-0.0109
619.5306	-0.0004
619.7196	0.0008
619.9086	-0.0004
620.0976	-0.0036
620.2866	0.004
620.4755	-0.0041
620.6645	-0.0015
620.8534	0.002
621.0423	-0.0062
621.2312	-0.0073
621.42	-0.0016
621.6089	-0.0045
621.7977	-0.0031
621.9865	-0.0027
622.1753	-0.0013
622.3641	0.0018
622.5529	-0.0013
622.7416	-0.0048
622.9303	0.0022
623.1191	-0.003
623.3078	0.0013
623.4964	-0.0033
623.6851	0.0012
623.8737	-0.0047
624.0624	-0.0017
624.251	0.0028
624.4396	-0.002
624.6282	-0.0026
624.8167	0.003
625.0053	0.0009
625.1938	-0.0015
625.3823	0.0011
625.5708	-0.0028
625.7593	-0.0035
625.9477	-0.0095
626.1362	-0.0047
626.3246	-0.0049
626.513	-0.0051
626.7014	-0.0025
626.8898	-0.004
627.0781	-0.0042
627.2665	-0.0065
627.4548	-0.0076
627.6431	-0.0063
627.8314	-0.0054
628.0197	-0.0019
628.2079	0.0029
628.3962	-0.0006
628.5844	0.0031
628.7726	-0.0001
628.9608	0.0002
629.1489	0.0019
629.3371	0.0027
629.5252	0.0033
629.7134	0.0003
629.9015	0.0027
630.0895	-0.0006
630.2776	-0.0027
630.4657	-0.0056
630.6537	0.0006
630.8417	-0.0025
631.0297	-0.0014
631.2177	0.0007
631.4057	0.0015
631.5936	-0.0031
631.7815	-0.0036
631.9695	-0.0007
632.1574	-0.0066
632.3452	-0.0095
632.5331	-0.0061
632.7209	-0.004
632.9088	-0.0051
633.0966	-0.0051
633.2844	-0.005
633.4722	-0.0019
633.6599	0.0011
633.8477	-0.0052
634.0354	-0.0074
634.2231	-0.0058
634.4108	0.0008
634.5985	0.0001
634.7861	-0.0051
634.9738	-0.0052
635.1614	-0.0069
635.349	-0.0009
635.5366	-0.0037
635.7242	0
635.9117	-0.0026
636.0993	-0.0057
636.2868	-0.0033
636.4743	0.0005
636.6618	-0.0115
636.8492	-0.0022
637.0367	0.0001
637.2241	-0.0049
637.4115	-0.0051
637.5989	-0.004
637.7863	-0.0021
637.9737	-0.0078
638.161	-0.0051
638.3484	-0.0027
638.5357	-0.0018
638.723	-0.0052
638.9103	0.0018
639.0975	0.002
639.2848	-0.0024
639.472	0.0015
639.6592	0.0065
639.8464	0.0015
640.0336	-0.0011
640.2208	-0
640.4079	-0.0053
640.595	-0.0018
640.7821	-0.001
640.9692	-0.0012
641.1563	0.0058
641.3434	0.0001
641.5304	0.0008
641.7174	0.0004
641.9044	0.0048
642.0914	0.0003
642.2784	0.001
642.4653	0.004
642.6523	-0.0029
642.8392	0.0011
643.0261	0.0026
643.213	0.0003
643.3999	-0.0012
643.5867	-0.0027
643.7735	-0.0027
643.9604	-0.0053
644.1472	0.0016
644.3339	0.0009
644.5207	-0.0018
644.7075	-0.0058
644.8942	-0.0028
645.0809	-0.0018
645.2676	-0.0053
645.4543	0.0026
645.6409	0.0005
645.8276	0.0014
646.0142	-0.0059
646.2008	-0.0058
646.3874	-0.0017
646.574	-0.0075
646.7605	-0.0017
646.9471	-0.0033
647.1336	-0.0071
647.3201	-0.0049
647.5066	-0.0016
647.6931	0.0042
647.8795	-0.0081
648.0659	0.0016
648.2524	-0.0046
648.4388	-0.0054
648.6252	-0.0065
648.8115	-0.0096
648.9979	-0.0044
649.1842	-0.0088
649.3705	-0.0029
649.5568	-0.0012
649.7431	-0.0018
649.9294	-0.0059
650.1156	-0.0031
650.3018	-0.0117
650.488	-0.0078
650.6742	-0.0042
650.8604	-0.0013
651.0466	-0.0033
651.2327	-0.0012
651.4188	-0.0009
651.6049	0.0021
651.791	0.001
651.9771	0.0009
652.1632	0.0041
652.3492	0.0031
652.5352	-0.0043
652.7212	-0.0012
652.9072	0.0009
653.0932	0.0015
653.2791	-0.0017
653.465	-0.0047
653.651	-0.0006
653.8369	-0.0038
654.0227	-0.0008
654.2086	0.0014
654.3944	-0.008
654.5803	-0.005
654.7661	-0.0055
654.9519	-0.0069
655.1377	-0.0017
655.3234	-0.0002
655.5092	-0.0002
655.6949	-0.0002
655.8806	-0.0002
656.0663	-0.0002
656.2519	-0.0002
656.4376	-0.0025
656.6232	-0.0058
656.8088	-0.0059
656.9945	-0.0044
657.18	0.0013
657.3656	0.0003
657.5511	-0.0043
657.7367	-0.0046
657.9222	0.0013
658.1077	0.001
658.2932	-0.0038
658.4786	0.001
658.6641	-0.0031
658.8495	-0.0054
659.0349	-0.0032
659.2203	-0.0066
659.4057	-0.0011
659.591	-0.0051
659.7764	-0.0062
659.9617	-0.0055
660.147	-0.0055
660.3323	-0.0047
660.5176	-0.0022
660.7028	-0.0041
660.888	-0.004
661.0733	0.0025
661.2585	-0.0088
661.4436	-0.0037
661.6288	-0.0085
661.8139	-0.0001
661.9991	-0.0016
662.1842	0.0017
662.3693	-0.0033
662.5544	-0.0005
662.7394	-0.0023
662.9245	0.0014
663.1095	-0.0012
663.2945	-0.001
663.4795	-0.0024
663.6644	-0.0049
663.8494	-0.0074
664.0343	-0.001
664.2193	-0.0065
664.4042	-0.0128
664.589	-0.0037
664.7739	-0.0043
664.9587	0.0035
665.1436	0.0037
665.3284	0.0026
665.5132	-0.0004
665.698	0.0044
665.8827	0.0028
666.0675	-0.0055
666.2522	-0.0076
666.4369	-0.008
666.6216	-0.0086
666.8063	-0.0064
666.9909	-0.0062
667.1756	-0.0074
667.3602	-0.0087
667.5448	-0.011
667.7294	-0.0043
667.9139	-0.0047
668.0985	-0.012
668.283	-0.0038
668.4675	-0.0145
668.652	-0.0082
668.8365	-0.0107
669.0209	-0.008
669.2054	-0.0017
669.3898	-0.0056
669.5742	-0.0079
669.7586	-0.0003
669.943	-0.0081
670.1273	-0.0134
670.3117	-0.0071
670.496	-0.0054
670.6803	0.0016
670.8646	-0.0001
671.0488	-0.0031
671.2331	-0.0042
671.4173	-0.0012
671.6015	-0.0032
671.7857	-0.0052
671.9699	-0.0028
672.1541	-0.004
672.3382	-0.0056
672.5223	-0.0072
672.7064	-0.0084
672.8905	-0.0135
673.0746	-0.0073
673.2587	-0.0169
673.4427	-0.0123
673.6267	-0.0147
673.8107	-0.0104
673.9947	-0.0128
674.1787	-0.0135
674.3626	-0.009
674.5465	-0.0066
674.7304	-0.002
674.9143	-0.0075
675.0982	0.0001
675.2821	-0.0016
675.4659	-0.0023
675.6497	-0.0008
675.8335	-0.0005
676.0173	-0.0039
676.2011	-0.0069
676.3849	-0.0074
676.5686	-0.0049
676.7523	-0.0004
676.936	0.0026
677.1197	-0.007
677.3034	-0.0048
677.487	-0.0079
677.6706	-0.0064
677.8542	-0.0021
678.0378	-0.0031
678.2214	-0.0098
678.405	0.0009
678.5885	-0.0075
678.772	-0.005
678.9555	-0.0079
679.139	-0.0056
679.3225	-0.007
679.5059	-0.0044
679.6894	-0.0002
679.8728	-0.0017
680.0562	-0.002
680.2395	-0.0038
680.4229	0.0013
680.6062	-0.0009
680.7896	0.0061
680.9729	-0.0038
681.1562	-0.0004
681.3394	0.0048
681.5227	-0.0058
681.7059	-0.0074
681.8891	-0.0069
682.0723	-0.0067
682.2555	-0.0075
682.4387	0.0019
682.6218	-0.0023
682.805	-0.0036
682.9881	-0.0041
683.1712	0.005
683.3542	-0
683.5373	-0.0053
683.7203	-0
683.9034	-0.0045
684.0864	-0.0085
684.2694	-0.0029
684.4523	-0.0011
684.6353	-0.0026
684.8182	-0.0039
685.0011	-0.0067
685.184	0.0006
685.3669	-0.0044
685.5498	-0.002
685.7326	0.0013
685.9154	-0.0067
686.0982	-0.0084
686.281	-0.004
686.4638	-0.01
686.6465	-0.0057
686.8293	-0.0061
687.012	-0.0019
687.1947	-0.0073
687.3774	-0.0054
687.56	-0.0053
687.7427	-0.0041
687.9253	-0.0036
688.1079	0.0021
688.2905	-0.0025
688.4731	0.0005
688.6556	-0.0055
688.8382	-0.0037
689.0207	0.0059
689.2032	0.002
689.3857	0.0027
689.5681	0.0013
689.7506	0.0005
689.933	0.0043
690.1154	-0.0029
690.2978	0.0038
690.4802	-0.0029
690.6626	0.0021
690.8449	0.0004
691.0272	0.0039
691.2095	0.0033
691.3918	0.0012
691.5741	-0.0074
691.7563	0.0029
691.9386	-0.0062
692.1208	-0.0075
692.303	-0.0071
692.4852	0.0014
692.6673	-0.0014
692.8495	-0.0059
693.0316	-0.0062
693.2137	-0.0048
693.3958	-0.0068
693.5778	-0.0019
693.7599	-0.004
693.9419	-0.011
694.1239	-0.0007
694.3059	-0.0138
694.4879	-0.0029
694.6699	-0.0096
694.8518	-0.0062
695.0337	-0.0056
695.2157	-0.0041
695.3975	-0.0068
695.5794	-0.0059
695.7613	-0.0071
695.9431	-0.0095
696.1249	-0.0062
696.3067	-0.0077
696.4885	-0.0011
696.6703	-0.0041
696.852	-0.003
697.0337	0.0008
697.2154	-0.0024
697.3971	-0.005
697.5788	-0.0023
697.7605	-0.0049
697.9421	-0.0024
698.1237	-0.0048
698.3053	-0.0067
698.4869	-0.001
698.6685	-0.0077
698.85	-0.0074
699.0315	-0.0039
699.213	-0.0022
699.3945	-0.0022
699.576	0.0078
699.7575	-0.0054
699.9389	-0.0014
700.1203	-0.0064
700.3017	-0.0064
700.4831	-0.0029
700.6645	-0.0087
700.8458	-0.004
701.0271	-0.0051
701.2084	-0.0047
701.3897	-0.0037
701.571	0.0029
701.7523	-0.0025
701.9335	0.0005
702.1147	0.0045
702.2959	0.001
702.4771	-0.0023
702.6583	0.0032
702.8394	-0.0017
703.0205	0.0022
703.2016	-0.0024
703.3827	0.002
703.5638	-0.005
703.7449	-0.0046
703.9259	-0.0048
704.1069	-0.0059
704.2879	-0.0002
704.4689	-0.0066
704.6499	-0.0039
704.8308	-0.0074
705.0117	-0.0025
705.1927	-0.0026
705.3735	0.0021
705.5544	-0.0015
705.7353	-0.0003
705.9161	0.0043
706.0969	0.0039
706.2777	-0.004
706.4585	-0.0013
706.6393	-0.0031
706.82	-0.0048
707.0007	-0.0052
707.1815	-0.0029
707.3621	0.0009
707.5428	-0.0046
707.7235	-0.0026
707.9041	0.0046
708.0847	-0.0024
708.2653	-0.0061
708.4459	-0.0036
708.6265	-0.0038
708.807	-0.0007
708.9875	-0.0057
709.168	-0.0028
709.3485	-0.0032
709.529	-0.0048
709.7095	-0.0073
709.8899	-0.0106
710.0703	-0.0009
710.2507	-0.001
710.4311	-0.0005
710.6115	0.0024
710.7918	-0.0059
710.9721	0
711.1524	-0.0003
711.3327	0.0029
711.513	-0.0025
711.6932	-0.0045
711.8735	0.0028
712.0537	0.0035
712.2339	-0.0016
712.4141	-0.0018
712.5942	-0.0038
712.7744	-0.0017
712.9545	-0.0005
713.1346	-0.0019
713.3147	0.0069
713.4947	-0.0004
713.6748	-0.0014
713.8548	-0.0065
714.0348	-0.0072
714.2148	-0.0081
714.3948	-0.0062
714.5748	-0.0083
714.7547	-0.0108
714.9346	-0.0061
715.1145	-0.0042
715.2944	-0.0016
715.4743	-0.0078
715.6541	-0.0047
715.834	-0.0035
716.0138	-0.0046
716.1936	-0.0008
716.3733	-0.0074
716.5531	-0.0031
716.7328	-0.0029
716.9126	-0.0033
717.0923	-0.0032
717.2719	-0.0047
717.4516	-0.0058
717.6312	0.0001
717.8109	-0.0076
717.9905	-0.0115
718.1701	-0.003
718.3496	-0.0041
718.5292	-0.0052
718.7087	-0.0095
718.8882	-0.0015
719.0677	-0.0029
719.2472	-0.0042
719.4267	-0.0124
719.6061	-0.0111
719.7856	-0.006
719.965	-0.0114
720.1443	-0.0066
720.3237	-0.0024
720.5031	-0.011
720.6824	-0.0031
720.8617	-0.007
721.041	0.0013
721.2203	-0.0077
721.3995	-0.0085
721.5788	-0.0076
721.758	-0.0015
721.9372	-0.0021
722.1164	-0.0071
722.2956	-0.0144
722.4747	-0.0068
722.6538	-0.0107
722.8329	-0.0012
723.012	0.001
723.1911	0.0025
723.3702	0.0028
723.5492	-0.0025
723.7282	-0.0031
723.9072	-0.0006
724.0862	0.0009
724.2652	-0.003
724.4441	-0.0092
724.623	0.0025
724.8019	-0.0039
724.9808	-0.001
725.1597	0.0052
725.3385	0.0075
725.5174	0.0015
725.6962	-0.0093
725.875	0.0011
726.0538	0.0007
726.2325	-0.0066
726.4112	-0.0041
726.59	0.0001
726.7687	-0.0004
726.9474	-0.0034
727.126	-0.0046
727.3047	-0.0029
727.4833	0.0018
727.6619	-0.0087
727.8405	-0.0014
728.0191	0.0019
728.1976	-0.0039
728.3762	-0.0019
728.5547	-0.0109
728.7332	-0.0061
728.9116	-0.012
729.0901	-0.0125
729.2686	-0.0135
729.447	-0.0063
729.6254	-0.0063
729.8038	-0.0104
729.9821	-0.0002
730.1605	-0.0011
730.3388	-0.0033
730.5171	-0.0022
730.6954	-0.0046
730.8737	-0.0048
731.0519	0.0004
731.2302	-0.0015
731.4084	-0.0094
731.5866	-0.0026
731.7648	0.0017
731.9429	0.005
732.1211	-0.0023
732.2992	0.0018
732.4773	-0.0003
732.6554	-0.0016
732.8335	-0.0063
733.0115	-0.0093
733.1896	-0.0048
733.3676	-0.0015
733.5456	-0.003
733.7235	-0.007
733.9015	0
734.0794	-0.0051
734.2574	-0.0021
734.4353	-0.0061
734.6131	-0.006
734.791	-0.004
734.9689	-0.0084
735.1467	0.0023
735.3245	-0.0016
735.5023	-0.0082
735.68	-0.0062
735.8578	-0.0004
736.0355	0.005
736.2132	-0.0014
736.3909	-0.0036
736.5686	-0.0016
736.7463	-0.0011
736.9239	-0.0099
737.1015	-0.0031
737.2791	-0.0108
737.4567	-0.0058
737.6343	0.0017
737.8118	-0.0088
737.9894	-0.0005
738.1669	-0.0036
738.3444	0.0006
738.5218	0.0015
738.6993	-0.0028
738.8767	-0.0014
739.0541	-0.0054
739.2315	-0.008
739.4089	-0.0023
739.5863	-0.0055
739.7636	-0.0066
739.9409	-0.0049
740.1182	0.0016
740.2955	-0.0057
740.4728	-0.0034
740.65	0.0008
740.8272	0.0043
741.0044	-0.0064
741.1816	-0.0013
741.3588	-0.0022
741.5359	-0.0022
741.7131	0.0016
741.8902	0.0114
742.0673	0.0028
742.2444	-0.0054
742.4214	-0.0056
742.5985	-0.0087
742.7755	-0.007
742.9525	0.0015
743.1295	-0.0008
743.3064	-0.0021
743.4834	-0.0031
743.6603	-0.0007
743.8372	-0.0011
744.0141	-0.0028
744.191	-0.0029
744.3678	-0.0005
744.5446	0.003
744.7215	-0.0077
744.8982	-0.0048
745.075	-0.0002
745.2518	-0.0001
745.4285	-0.0017
745.6052	0.0019
745.7819	0.0005
745.9586	0.0028
746.1353	-0.0051
746.3119	-0.0009
746.4885	-0.0049
746.6651	-0.0044
746.8417	-0.0025
747.0183	-0.0028
747.1948	-0.0098
747.3714	-0.0042
747.5479	-0.0053
747.7244	0.0003
747.9008	-0.0044
748.0773	0.0014
748.2537	0.0051
748.4301	0.0043
748.6065	-0.0001
748.7829	0.0053
748.9593	-0.0026
749.1356	-0.0075
749.3119	0.0014
749.4882	0.006
749.6645	-0.0039
749.8408	-0.0029
750.017	-0.0034
750.1933	-0.0053
750.3695	-0.0093
750.5457	-0.0085
750.7218	-0.0091
750.898	-0.0084
751.0741	-0.0069
751.2502	-0.0055
751.4263	-0.0041
751.6024	-0.0061
751.7784	0.0084
751.9545	0.0004
752.1305	0.0011
752.3065	0.0002
752.4825	-0.0026
752.6584	-0.0011
752.8344	0.0022
753.0103	-0.0061
753.1862	0.0036
753.3621	0.0013
753.5379	-0.0091
753.7138	0.0056
753.8896	-0.0114
754.0654	-0.0047
754.2412	-0.015
754.417	-0.0069
754.5927	-0.0027
754.7685	-0.0105
754.9442	-0.0072
755.1199	-0.0134
755.2956	-0.0055
755.4712	-0.0123
755.6469	-0.0131
755.8225	-0.0124
755.9981	-0.0115
756.1736	-0.0029
756.3492	-0.0078
756.5248	-0.002
756.7003	-0.0076
756.8758	-0.0114
757.0513	-0.0074
757.2267	-0.01
757.4022	-0.0128
757.5776	-0.0118
757.753	-0.0114
757.9284	-0.0066
758.1038	-0.0038
758.2791	-0.0113
758.4545	-0.0145
758.6298	-0.0089
758.8051	-0.0078
758.9803	-0.0118
759.1556	-0.0078
759.3308	-0.0017
759.506	-0.0104
759.6812	-0.004
759.8564	-0.0071
760.0316	-0.0133
760.2067	-0.0068
760.3819	-0.0062
760.557	-0.0106
760.732	-0.0149
760.9071	-0.012
761.0821	-0.0163
761.2572	-0.0111
761.4322	-0.0075
761.6072	-0.0125
761.7821	-0.0087
761.9571	-0.0147
762.132	-0.0112
762.3069	-0.0041
762.4818	-0.0017
762.6567	-0.0104
762.8316	-0.0049
763.0064	0.002
763.1812	0.0004
763.356	-0.0028
763.5308	0.0009
763.7055	0.0037
763.8803	-0.0012
764.055	-0.0066
764.2297	0.0056
764.4044	-0.0042
764.579	0.0074
764.7537	-0.0051
764.9283	-0.0043
765.1029	0.0028
765.2775	0.0038
765.4521	0.006
765.6266	0.0006
765.8011	-0.0011
765.9756	0.003
766.1501	0.0109
766.3246	-0.0082
766.4991	-0.0055
766.6735	-0.003
766.8479	-0.0121
767.0223	0.0089
767.1967	-0.0053
767.371	-0.0043
767.5454	-0.0047
767.7197	-0.0075
767.894	0.0004
768.0683	0.0041
768.2425	-0.0045
768.4168	-0.0025
768.591	0.0021
768.7652	0.0023
768.9394	0.0006
769.1135	0.0052
769.2877	0.0021
769.4618	0.0045
769.6359	0.0012
769.81	0.0014
769.984	-0.0061
770.1581	0.0061
770.3321	-0.0037
770.5061	-0.0025
770.6801	0.0017
770.8541	0.0003
771.028	0.0036
771.202	0.0009
771.3759	-0.0026
771.5498	0.0024
771.7236	-0.0025
771.8975	-0.0035
772.0713	0.0052
772.2451	0.0016
772.4189	-0.0021
772.5927	-0.0051
772.7665	-0.0039
772.9402	-0.0023
773.1139	0.0022
773.2876	0.0013
773.4613	-0.0013
773.635	-0.0016
773.8086	0.0057
773.9822	-0.0019
774.1558	-0.0033
774.3294	0.0088
774.503	-0.0009
774.6765	-0.0035
774.8501	0.0012
775.0236	-0.009
775.1971	-0.0017
775.3705	0.0028
775.544	-0.0088
775.7174	0.0008
775.8908	-0.0047
776.0642	-0.0046
776.2376	-0.0063
776.4109	-0.0017
776.5843	0.0044
776.7576	0.0042
776.9309	-0.008
777.1041	-0.0061
777.2774	0.0027
777.4506	0.0007
777.6238	0.0038
777.797	-0.004
777.9702	-0.0037
778.1434	-0.0041
778.3165	0.001
778.4896	-0.0195
778.6627	-0.0053
778.8358	-0.0106
779.0089	0.0033
779.1819	-0.0055
779.3549	-0.011
779.5279	-0.0009
779.7009	-0.0111
779.8739	0.0003
780.0468	-0.0112
780.2197	-0.0051
780.3926	-0.0026
780.5655	-0.0111
780.7384	-0.0114
780.9112	-0.0063
781.0841	0.0046
781.2569	0.0049
781.4297	-0.009
781.6024	-0.0027
781.7752	0.0044
781.9479	-0.0047
782.1206	0.0017
782.2933	-0.0075
782.466	-0.0015
782.6386	-0.005
782.8113	-0.0137
782.9839	-0.0109
783.1565	-0.0064
783.329	-0.0053
783.5016	-0.0097
783.6741	-0.008
783.8466	-0.0099
784.0191	-0.0123
784.1916	0.0009
784.3641	-0.0012
784.5365	-0.0006
784.7089	-0.0062
784.8813	0.0097
785.0537	0.0113
785.2261	0.0018
785.3984	-0.0055
785.5707	0.0003
785.743	0.0033
785.9153	-0.0026
786.0876	0.0052
786.2598	0.0093
786.432	0.0043
786.6042	0.0017
786.7764	0.0065
786.9486	0.0053
787.1207	-0.0085
787.2928	-0.0026
787.4649	-0.0067
787.637	-0.0067
787.8091	0.0055
787.9811	0.0002
788.1532	-0.0027
788.3252	-0.0098
788.4972	-0.0039
788.6691	-0.004
788.8411	0.0013
789.013	-0.001
789.1849	0.0112
789.3568	-0.0043
789.5287	-0.0043
789.7005	-0.0043
789.8723	0
790.0442	-0.0036
790.2159	-0.0018
790.3877	-0.0048
790.5595	-0.0004
790.7312	0.0026
790.9029	-0.0016
791.0746	0.005
791.2463	-0.0009
791.4179	-0.0118
791.5896	0.0039
791.7612	-0.0009
791.9328	-0.0033
792.1044	-0.0015
792.2759	0.0027
792.4474	-0.0015
792.619	-0.0133
792.7905	-0.0089
792.9619	-0.0077
793.1334	-0.0007
793.3048	-0.0085
793.4762	0.0041
793.6476	-0.0202
793.819	-0.007
793.9904	-0.0087
794.1617	-0.0118
794.333	-0.0144
794.5043	-0.0087
794.6756	0.0045
794.8469	0.0025
795.0181	-0.005
795.1893	-0.0103
795.3605	-0.0031
795.5317	-0.002
795.7029	-0.0029
795.874	-0.0074
796.0452	0.0017
796.2163	-0.0065
796.3873	-0.012
796.5584	-0.0113
796.7294	-0.0046
796.9005	-0.0163
797.0715	-0.0088
797.2425	-0.0169
797.4134	-0.0105
797.5844	-0.0102
797.7553	-0.0113
797.9262	-0.0131
798.0971	-0.0117
798.2679	-0.008
798.4388	-0.0187
798.6096	-0.0185
798.7804	-0.0103
798.9512	-0.0141
799.122	-0.0066
799.2927	-0.011
799.4635	-0.0014
799.6342	-0.0104
799.8049	-0.008
799.9755	-0.0113
800.1462	-0.0161
800.3168	-0.0137
800.4874	-0.0133
800.658	-0.0235
800.8286	-0.0145
800.9991	-0.0154
801.1696	-0.0205
801.3402	-0.0211
801.5106	-0.0184
801.6811	-0.0268
801.8516	-0.0147
802.022	-0.0132
802.1924	-0.0174
802.3628	-0.024
802.5332	-0.0133
802.7035	-0.0156
802.8739	-0.0161
803.0442	-0.0162
803.2145	-0.0113
803.3847	-0.0195
803.555	-0.0078
803.7252	-0.003
803.8954	-0.0191
804.0656	0.0018
804.2358	-0.0151
804.4059	-0.0077
804.5761	-0.0132
804.7462	-0.0002
804.9163	-0.0143
805.0864	-0.0229
805.2564	-0.0166
805.4264	-0.0192
805.5965	-0.0198
805.7665	-0.0036
805.9364	-0.012
806.1064	-0.0037
806.2763	-0.0129
806.4462	-0.0077
806.6161	-0.0131
806.786	-0.0195
806.9559	-0.0069
807.1257	-0.0122
807.2955	-0.0168
807.4653	-0.007
807.6351	-0.0039
807.8048	-0.0056
807.9746	-0.0101
808.1443	-0.0046
808.314	-0.0018
808.4837	0.0071
808.6533	-0.0031
808.8229	-0.0038
808.9926	0.0051
809.1622	-0.0132
809.3317	0.0101
809.5013	-0.0003
809.6708	0.0073
809.8403	-0.0036
810.0098	0.0174
810.1793	-0.0137
810.3488	0.0045
810.5182	-0.0038
810.6876	-0.0014
810.857	-0.017
811.0264	-0.0065
811.1958	0.0036
811.3651	-0.0132
811.5344	0.0155
811.7037	-0.0108
811.873	-0.0021
812.0422	-0.0226
812.2115	-0.007
812.3807	-0.0015
812.5499	-0.0154
812.7191	-0.0175
812.8882	-0.0045
813.0574	-0.0137
813.2265	-0.0014
813.3956	-0.0095
813.5646	-0.0125
813.7337	0.0023
813.9027	-0.0095
814.0718	-0.0102
814.2407	-0.0013
814.4097	-0.0057
814.5787	0.007
814.7476	-0.0099
814.9165	0.0039
815.0854	0.0061
815.2543	0.0082
815.4232	-0.0028
815.592	0.0029
815.7608	-0.0073
815.9296	0.0054
816.0984	-0.0095
816.2671	-0.0021
816.4359	-0.0036
816.6046	0.0042
816.7733	0.0065
816.942	-0.002
817.1106	-0.0072
817.2793	-0.0068
817.4479	-0.0133
817.6165	-0.0098
817.785	-0.0128
817.9536	-0.0105
818.1221	-0.0134
818.2906	-0.0067
818.4591	-0.0198
818.6276	0.0121
818.7961	-0.0056
818.9645	-0.0075
819.1329	-0.0039
819.3013	-0.0101
819.4697	-0.0031
819.638	-0.0169
819.8064	-0.0129
819.9747	0.005
820.143	-0.0017
820.3113	-0.0072
820.4795	0.0173
820.6477	-0.0061
820.816	-0.0043
820.9842	-0.0071
821.1523	-0.021
821.3205	-0.0101
821.4886	-0.0041
821.6567	-0.0007
821.8248	-0.0249
821.9929	-0.0137
822.1609	-0.0005
822.329	-0.0081
822.497	-0.0182
822.665	-0.0205
822.833	-0.0245
823.0009	-0.0136
823.1688	-0.0143
823.3367	-0.011
823.5046	-0.0073
823.6725	-0.0112
823.8404	-0.0019
824.0082	-0.006
824.176	-0.0055
824.3438	-0.0113
824.5116	0.0053
824.6793	-0.0193
824.847	-0.0032
825.0147	-0.0096
825.1824	-0.0261
825.3501	-0.0006
825.5177	-0.0127
825.6854	-0.008
825.853	0.0014
826.0206	0.004
826.1881	-0.0123
826.3557	-0.0187
826.5232	-0.0035
826.6907	-0.0014
826.8582	-0.0011
827.0257	-0.0018
827.1931	0.0123
827.3605	-0.0001
827.528	0.0075
827.6953	-0.003
827.8627	-0.0061
828.03	-0.0084
828.1974	-0.0003
828.3647	0.0053
828.532	-0.0106
828.6992	-0.0167
828.8665	-0.0146
829.0337	-0.0168
829.2009	-0.0082
829.3681	-0.0273
829.5352	-0.0016
829.7024	-0.0002
829.8695	-0.0279
830.0366	-0.021
830.2037	-0.018
830.3707	-0.0095
830.5378	-0.0147
830.7048	-0.0337
830.8718	-0.015
831.0388	0.0075
831.2057	-0.0133
831.3727	-0.0185
831.5396	0.0076
831.7065	-0.0012
831.8734	0.0085
832.0402	-0.02
832.2071	0.0008
832.3739	-0.0006
832.5407	0.0045
832.7075	0.0102
832.8742	0.014
833.041	0.0206
833.2077	-0.0416
833.3744	0.0019
833.541	0.0094
833.7077	-0.0035
833.8743	-0.0098
834.0409	0.0019
834.2075	0.0257
834.3741	-0.0095
834.5407	0.0154
834.7072	-0.0011
834.8737	-0.0053
835.0402	-0.0412
835.2067	-0.0127
835.3731	-0.0155
835.5395	-0.0159
835.706	-0.0297
835.8723	-0.0218
836.0387	-0.0139
836.2051	-0.0086
836.3714	0.0074
836.5377	0.0019
836.704	0.0091
836.8703	-0.0219
837.0365	0
837.2027	-0.0227
837.3689	-0.0225
837.5351	0.0101
837.7013	-0.0222
837.8674	0.0051
838.0335	-0.0057
838.1997	-0.0101
838.3657	0.0029
838.5318	-0.0195
838.6978	-0.0069
838.8639	0.0264
839.0299	-0.0152
839.1958	-0.0037
839.3618	0.0193
839.5277	-0.0182
839.6937	-0.0228
839.8596	-0.002
840.0254	-0.0048
840.1913	-0.0083
840.3571	0.0075
840.523	0.0193
840.6888	-0.0023
840.8545	-0.0227
841.0203	-0.0091
841.186	-0.0075
841.3517	-0.0178
841.5174	-0.0161
841.6831	0.0053
841.8488	0.0132
842.0144	0.014
842.18	0.0056
842.3456	-0.0081
842.5112	0.0101
842.6767	-0.0143
842.8422	-0.0038
843.0077	0.0112
843.1732	-0.01
843.3387	-0.0061
843.5042	-0.001
843.6696	-0.0034
843.835	-0.0281
844.0004	-0.0043
844.1657	-0.0224
844.3311	0.0136
844.4964	0.0087
844.6617	0.0114
844.827	-0.0137
844.9923	-0.0108
845.1575	-0.0003
845.3227	-0.0164
845.4879	-0.0057
845.6531	0.0172
845.8183	-0.0079
845.9834	-0.0135
846.1485	0.027
846.3136	-0.0508
846.4787	-0.002
846.6438	0.0029
846.8088	0.0004
846.9738	-0.0123
847.1388	0.0018
847.3038	0.0051
847.4687	0.0052
847.6337	0.0117
847.7986	0.0372
847.9635	-0.0057
848.1284	-0.0427
848.2932	0.0048
848.458	0.0005
848.6228	-0.0005
848.7876	-0.0562
848.9524	0.0044
849.1172	-0.0408
849.2819	-0.0058
849.4466	-0.0005
849.6113	-0.0098
849.7759	0.0054
849.9406	-0.0032
850.1052	0.0484
850.2698	-0.0163
850.4344	-0.0105
850.599	-0.0397
850.7635	-0.0111
850.928	-0.0121
851.0925	-0.0054
851.257	-0.0123
851.4215	0.0216
851.5859	0.0472
851.7503	-0.0343
851.9147	0.0156
852.0791	-0.0135
852.2434	-0.0137
852.4078	0.0036
852.5721	-0.0355
852.7364	-0.0791
852.9007	0.0602
853.0649	-0.029
853.2291	0.0115
853.3934	-0.0403
853.5575	-0.0078
853.7217	-0.0384
853.8859	-0.01
854.05	0.0306
854.2141	-0.0105
854.3782	0.0227
854.5423	0.025
854.7063	-0.0165
854.8703	-0.0342
855.0343	-0.0079
855.1983	0.0016
855.3623	0.0017
855.5262	-0.0147
855.6901	-0.0479
855.854	0.056
856.0179	0.0448
856.1818	-0.0396
856.3456	-0.0292
856.5094	-0.0415
856.6732	-0.0582
856.837	-0.0074
857.0008	0.0396
857.1645	-0.0274
857.3282	-0.0031
857.4919	-0.035
857.6556	0.038
857.8192	-0.052
857.9828	-0.0388
858.1465	0.0262
858.31	-0.0208
858.4736	-0.0766
858.6372	0.0394
858.8007	0.017
858.9642	-0.0718
859.1277	0.0046
859.2911	-0.0213
859.4546	-0.028
859.618	-0.0685
859.7814	0.037
859.9448	-0.054
860.1081	-0.0628
860.2715	0.0015
860.4348	-0.0164
860.5981	-0.0843
860.7614	-0.0864
860.9246	-0.0767
861.0879	0.0727
861.2511	-0.0778
861.4143	-0.1248
861.5774	-0.0571
861.7406	-0.0836
861.9037	-0.1274
862.0668	-0.069
862.2299	-0.0566
862.393	-0.1017
862.556	0.048
862.7191	-0.0976
862.8821	-0.0326
863.0451	0.0414
863.208	-0.1449
863.371	0.065
863.5339	-0.0977
863.6968	-0.1148
863.8597	0.0071
864.0225	-0.1706
864.1854	-0.0747
864.3482	-0.1267
864.511	-0.1074
864.6737	-0.0365
864.8365	0.0642
864.9992	-0.1059
865.1619	-0.0461
865.3246	-0.1816
865.4873	0.0536
865.65	-0.0913
865.8126	-0.0406
865.9752	0.0348
866.1378	-0.0472
866.3004	-0.0085
866.4629	-0.1104
866.6254	0.1059
866.7879	-0.0101
866.9504	-0.1699
867.1129	-0.1485
867.2753	0.0473
867.4377	-0.0729
867.6001	-0.2423
867.7625	0.0245
867.9249	-0.0341
868.0872	0.009
868.2495	-0.1394
868.4118	0.0773
868.5741	-0.0167
868.7363	0.0037
868.8986	0.0041
869.0608	-0.1512
869.223	-0.2328
869.3851	-0.154
869.5473	-0.2282
869.7094	0.2285
869.8715	-0.0646
870.0336	-0.0414
870.1957	0.0594
870.3577	0.0936
870.5197	-0.6055
870.6817	-0.1563
870.8437	-0.1093
871.0057	-0.3952
871.1676	0.023
871.3295	-0.2831
871.4914	-0.065
871.6533	-0.0826
871.8151	-0.0313
871.977	0.1072
872.1388	-0.2466
872.3006	-0.0798
872.4623	0.0592
872.6241	-0.1185
872.7858	0.2601
872.9475	-0.0347
873.1092	-0.0227
873.2709	0.0095
873.4325	-0.2705
873.5941	-0.1893
873.7557	0.0068
873.9173	-0.2341
874.0789	-0.3715
874.2404	-0.195
874.4019	-0.284
874.5634	-0.0664
874.7249	-0.3352
874.8863	-0.361
875.0478	-0
875.2092	-0.3308
875.3706	-0.0757
875.5319	0.009
875.6933	-0.4225
875.8546	-0.1675
876.0159	0.0122
876.1772	-0.2633
876.3385	-0
876.4997	0.0159
876.6609	-0.2013
876.8221	-0.0505
876.9833	-0.3656
877.1445	-0.1449
877.3056	-0.2484
877.4667	-1.0071
877.6278	0.0957
877.7889	0.0719
877.9499	-0.5806
878.111	0.1945
878.272	0.1067
878.433	-0.0356
878.5939	0.1882
878.7549	-0.3994
878.9158	-0.0964
879.0767	0.0268
879.2376	0.0085
879.3984	-0.1452
879.5593	-0
879.7201	-0
879.8809	-0.0757
880.0417	0.0517
880.2024	0.2419
880.3632	-0.3255
880.5239	-0
880.6846	-0.4816
880.8452	0.4017
881.0059	-0.5536
881.1665	-0
881.3271	-0.3917
881.4877	-0.1243
881.6483	-0
881.8088	-0.228
881.9693	0.0368
882.1298	0.0368
882.2903	0.0368
