Data from MonoPyChalIsomerACN10uM450nmA_Absorbance_13-11-26-891.txt Node
Date: Tue Jul 09 13:11:26 BST 2024
User: LASERRRRR
Spectrometer: FLMT03099
Trigger mode: 0
Integration Time (sec): 2.000000E-1
Scans to average: 1
Electric dark correction enabled: true
Nonlinearity correction enabled: false
Boxcar width: 0
XAxis mode: Wavelengths
Number of Pixels in Spectrum: 3648
>>>>>Begin Spectral Data<<<<<
179.3399	-0.0584
179.5586	-0.0584
179.7771	-0.0584
179.9957	-0.1183
180.2143	-0.0649
180.4329	0.0088
180.6514	-0
180.8699	-0
181.0885	-0.0026
181.307	0.2773
181.5255	-0.0724
181.744	-0
181.9625	0.2317
182.181	-0
182.3994	0.6332
182.6179	-0.2278
182.8363	-0
183.0547	0.218
183.2732	0.112
183.4916	0.0196
183.71	0.0176
183.9284	-0.0019
184.1467	0.002
184.3651	0.0372
184.5835	0.1263
184.8018	0.0653
185.0201	0.2208
185.2385	0.111
185.4568	0.1027
185.6751	0.1141
185.8934	0.0816
186.1117	0.0147
186.3299	-0.0134
186.5482	0.1738
186.7664	0.0435
186.9847	0.0504
187.2029	0.1093
187.4211	-0.0243
187.6393	0.0093
187.8575	0.0966
188.0757	0.1055
188.2939	0.1129
188.512	0.0965
188.7302	0.1273
188.9483	0.0601
189.1665	0.2368
189.3846	0.0523
189.6027	0.096
189.8208	0.0566
190.0389	0.3275
190.257	0.1623
190.475	0.1046
190.6931	0.1274
190.9111	0.2231
191.1292	0.1589
191.3472	0.2605
191.5652	0.2708
191.7832	0.3154
192.0012	0.2164
192.2192	0.412
192.4371	0.4699
192.6551	0.392
192.873	0.3227
193.091	0.4569
193.3089	0.4803
193.5268	0.4631
193.7447	0.5131
193.9626	0.5073
194.1805	0.5881
194.3984	0.5467
194.6162	0.5092
194.8341	0.5517
195.0519	0.5798
195.2697	0.5951
195.4875	0.6269
195.7054	0.6042
195.9231	0.5278
196.1409	0.6191
196.3587	0.6003
196.5765	0.6919
196.7942	0.6957
197.012	0.6918
197.2297	0.6739
197.4474	0.6672
197.6651	0.5828
197.8828	0.7949
198.1005	0.6944
198.3182	0.8635
198.5358	0.6424
198.7535	0.7653
198.9711	0.8251
199.1888	0.8018
199.4064	0.7895
199.624	0.7656
199.8416	0.8025
200.0592	0.7865
200.2767	0.76
200.4943	0.8561
200.7119	0.8134
200.9294	0.8586
201.1469	0.8336
201.3645	0.8503
201.582	1.0032
201.7995	0.7342
202.017	0.9213
202.2344	0.7649
202.4519	0.9569
202.6694	0.8569
202.8868	0.9484
203.1042	1.0689
203.3217	0.9935
203.5391	0.9403
203.7565	0.8907
203.9739	0.9506
204.1913	0.8081
204.4086	0.9371
204.626	1.0084
204.8433	0.9143
205.0607	0.9145
205.278	0.8658
205.4953	0.9763
205.7126	0.9238
205.9299	1.0641
206.1472	0.8991
206.3644	0.9892
206.5817	1.0134
206.7989	1.0206
207.0162	1.0721
207.2334	0.9266
207.4506	0.919
207.6678	1.1726
207.885	1.0764
208.1022	0.9932
208.3194	1.0084
208.5365	1.1112
208.7537	1.0643
208.9708	0.9922
209.1879	1.0511
209.405	1.1055
209.6222	1.005
209.8392	1.1146
210.0563	0.9868
210.2734	1.022
210.4905	1.1219
210.7075	0.9588
210.9245	1.0104
211.1416	1.0912
211.3586	1.1175
211.5756	1.0552
211.7926	1.0044
212.0096	1.0126
212.2265	1.1034
212.4435	1.1225
212.6604	1.0209
212.8774	1.0245
213.0943	1.0045
213.3112	0.9926
213.5281	1.0281
213.745	0.9545
213.9619	0.9663
214.1788	0.9381
214.3956	0.9408
214.6125	0.9392
214.8293	0.8936
215.0461	0.8825
215.2629	0.9122
215.4798	0.825
215.6965	0.7971
215.9133	0.8035
216.1301	0.8019
216.3469	0.8076
216.5636	0.7811
216.7803	0.7644
216.9971	0.7694
217.2138	0.7433
217.4305	0.7319
217.6472	0.6658
217.8639	0.6274
218.0805	0.6339
218.2972	0.5808
218.5138	0.5431
218.7305	0.5232
218.9471	0.496
219.1637	0.4626
219.3803	0.4184
219.5969	0.3881
219.8135	0.377
220.0301	0.3582
220.2466	0.3727
220.4632	0.3151
220.6797	0.3194
220.8962	0.3146
221.1127	0.3071
221.3292	0.2938
221.5457	0.2794
221.7622	0.2774
221.9787	0.2762
222.1951	0.281
222.4116	0.2661
222.628	0.2783
222.8444	0.2658
223.0608	0.272
223.2772	0.2654
223.4936	0.2558
223.71	0.2731
223.9264	0.2734
224.1427	0.2649
224.3591	0.2794
224.5754	0.2834
224.7917	0.2745
225.008	0.2689
225.2243	0.2745
225.4406	0.2789
225.6569	0.2724
225.8732	0.2935
226.0894	0.278
226.3057	0.2823
226.5219	0.2844
226.7381	0.2803
226.9543	0.2984
227.1705	0.2877
227.3867	0.3103
227.6029	0.291
227.8191	0.306
228.0352	0.3186
228.2513	0.2987
228.4675	0.3049
228.6836	0.3075
228.8997	0.3104
229.1158	0.3276
229.3319	0.3217
229.548	0.3095
229.764	0.3217
229.9801	0.3322
230.1961	0.3251
230.4121	0.3252
230.6282	0.3377
230.8442	0.3452
231.0602	0.3464
231.2761	0.3499
231.4921	0.3442
231.7081	0.3575
231.924	0.3626
232.14	0.374
232.3559	0.3679
232.5718	0.3704
232.7877	0.3557
233.0036	0.3599
233.2195	0.3495
233.4353	0.3524
233.6512	0.3761
233.867	0.3783
234.0829	0.3819
234.2987	0.37
234.5145	0.3733
234.7303	0.3989
234.9461	0.3979
235.1619	0.3865
235.3776	0.3852
235.5934	0.3929
235.8091	0.3857
236.0249	0.3825
236.2406	0.3924
236.4563	0.3894
236.672	0.3845
236.8877	0.4064
237.1034	0.3999
237.319	0.4043
237.5347	0.4022
237.7503	0.3961
237.966	0.4212
238.1816	0.4135
238.3972	0.4076
238.6128	0.4021
238.8284	0.4111
239.0439	0.4049
239.2595	0.4259
239.475	0.4163
239.6906	0.417
239.9061	0.4248
240.1216	0.4129
240.3371	0.4148
240.5526	0.4269
240.7681	0.4122
240.9836	0.4178
241.199	0.4078
241.4145	0.4096
241.6299	0.411
241.8453	0.3987
242.0607	0.389
242.2761	0.401
242.4915	0.3771
242.7069	0.3774
242.9223	0.3717
243.1376	0.3752
243.353	0.3648
243.5683	0.3655
243.7836	0.351
243.9989	0.3451
244.2142	0.3438
244.4295	0.3345
244.6448	0.329
244.86	0.3292
245.0753	0.3172
245.2905	0.2951
245.5057	0.3061
245.721	0.2936
245.9362	0.2877
246.1514	0.2979
246.3665	0.2789
246.5817	0.2745
246.7969	0.2788
247.012	0.2732
247.2271	0.2596
247.4423	0.2607
247.6574	0.2626
247.8725	0.2627
248.0876	0.2586
248.3026	0.2517
248.5177	0.2488
248.7328	0.2346
248.9478	0.2375
249.1628	0.2381
249.3779	0.2314
249.5929	0.2259
249.8079	0.2269
250.0228	0.2276
250.2378	0.2316
250.4528	0.2245
250.6677	0.2245
250.8827	0.2016
251.0976	0.2095
251.3125	0.2179
251.5274	0.2061
251.7423	0.2162
251.9572	0.2022
252.172	0.2083
252.3869	0.2087
252.6017	0.2106
252.8166	0.202
253.0314	0.2103
253.2462	0.2075
253.461	0.2101
253.6758	0.2009
253.8906	0.2004
254.1053	0.2033
254.3201	0.2127
254.5348	0.1945
254.7496	0.2067
254.9643	0.1978
255.179	0.1969
255.3937	0.203
255.6083	0.1955
255.823	0.1935
256.0377	0.1942
256.2523	0.1907
256.467	0.197
256.6816	0.1953
256.8962	0.1958
257.1108	0.1934
257.3254	0.1987
257.54	0.1993
257.7545	0.1933
257.9691	0.2015
258.1836	0.1933
258.3981	0.1987
258.6127	0.1953
258.8272	0.1966
259.0417	0.2
259.2561	0.1958
259.4706	0.1907
259.6851	0.1963
259.8995	0.1907
260.114	0.1969
260.3284	0.2022
260.5428	0.1927
260.7572	0.1974
260.9716	0.1966
261.186	0.195
261.4003	0.2046
261.6147	0.1988
261.829	0.1968
262.0433	0.1987
262.2577	0.1996
262.472	0.1975
262.6863	0.1893
262.9005	0.1984
263.1148	0.196
263.3291	0.1862
263.5433	0.1949
263.7576	0.1927
263.9718	0.1839
264.186	0.1946
264.4002	0.1843
264.6144	0.1894
264.8286	0.1796
265.0427	0.1895
265.2569	0.1785
265.471	0.1803
265.6851	0.1776
265.8993	0.1754
266.1134	0.173
266.3275	0.1894
266.5415	0.174
266.7556	0.1831
266.9697	0.1792
267.1837	0.1834
267.3978	0.1839
267.6118	0.1958
267.8258	0.185
268.0398	0.1934
268.2538	0.1925
268.4677	0.1997
268.6817	0.1969
268.8957	0.1926
269.1096	0.1877
269.3235	0.1801
269.5374	0.1815
269.7514	0.1733
269.9652	0.1742
270.1791	0.1631
270.393	0.1574
270.6068	0.1547
270.8207	0.154
271.0345	0.1611
271.2483	0.1533
271.4622	0.1573
271.676	0.1522
271.8897	0.1462
272.1035	0.1386
272.3173	0.1504
272.531	0.1494
272.7448	0.1452
272.9585	0.1425
273.1722	0.1341
273.3859	0.1457
273.5996	0.1403
273.8133	0.1558
274.0269	0.1464
274.2406	0.1443
274.4542	0.1476
274.6679	0.1411
274.8815	0.1494
275.0951	0.1444
275.3087	0.1415
275.5223	0.1421
275.7358	0.143
275.9494	0.1449
276.1629	0.1453
276.3765	0.1468
276.59	0.1497
276.8035	0.1545
277.017	0.1515
277.2305	0.1487
277.444	0.1463
277.6574	0.1518
277.8709	0.1446
278.0843	0.1585
278.2978	0.145
278.5112	0.1504
278.7246	0.1462
278.938	0.1453
279.1513	0.1487
279.3647	0.1517
279.5781	0.1526
279.7914	0.1511
280.0047	0.1463
280.2181	0.1545
280.4314	0.1497
280.6447	0.1505
280.8579	0.1588
281.0712	0.1553
281.2845	0.1464
281.4977	0.1545
281.711	0.1608
281.9242	0.1539
282.1374	0.153
282.3506	0.1468
282.5638	0.1512
282.7769	0.1622
282.9901	0.1542
283.2033	0.1675
283.4164	0.1559
283.6295	0.1584
283.8426	0.1615
284.0557	0.154
284.2688	0.1555
284.4819	0.1543
284.695	0.1586
284.908	0.1515
285.1211	0.1664
285.3341	0.157
285.5471	0.1601
285.7601	0.1559
285.9731	0.1554
286.1861	0.158
286.3991	0.1542
286.612	0.1604
286.825	0.1564
287.0379	0.1582
287.2508	0.154
287.4637	0.1617
287.6766	0.1537
287.8895	0.1582
288.1024	0.1599
288.3152	0.1614
288.5281	0.1554
288.7409	0.1512
288.9538	0.1633
289.1666	0.1647
289.3794	0.1566
289.5922	0.1575
289.8049	0.1519
290.0177	0.1626
290.2304	0.1525
290.4432	0.1494
290.6559	0.1565
290.8686	0.1535
291.0813	0.1524
291.294	0.1664
291.5067	0.1571
291.7194	0.16
291.932	0.1581
292.1447	0.1643
292.3573	0.1498
292.5699	0.1613
292.7825	0.1639
292.9951	0.1602
293.2077	0.1583
293.4203	0.1566
293.6328	0.1598
293.8454	0.1535
294.0579	0.1593
294.2704	0.1574
294.4829	0.1604
294.6954	0.1544
294.9079	0.1596
295.1204	0.1624
295.3328	0.1495
295.5453	0.1534
295.7577	0.1516
295.9701	0.1534
296.1825	0.16
296.3949	0.1486
296.6073	0.1602
296.8197	0.1559
297.0321	0.1526
297.2444	0.1567
297.4567	0.1527
297.6691	0.1569
297.8814	0.1504
298.0937	0.1568
298.306	0.158
298.5182	0.1415
298.7305	0.1578
298.9428	0.1479
299.155	0.1489
299.3672	0.1542
299.5794	0.1587
299.7916	0.16
300.0038	0.1474
300.216	0.1647
300.4282	0.1485
300.6403	0.1524
300.8525	0.1535
301.0646	0.1552
301.2767	0.1516
301.4888	0.149
301.7009	0.1569
301.913	0.159
302.125	0.1511
302.3371	0.1551
302.5491	0.1541
302.7612	0.1614
302.9732	0.1591
303.1852	0.1556
303.3972	0.1521
303.6092	0.1559
303.8211	0.1557
304.0331	0.1453
304.245	0.1444
304.457	0.1544
304.6689	0.1551
304.8808	0.1503
305.0927	0.1425
305.3046	0.1465
305.5164	0.1502
305.7283	0.1407
305.9401	0.144
306.152	0.1509
306.3638	0.1539
306.5756	0.1411
306.7874	0.1384
306.9992	0.1413
307.2109	0.1404
307.4227	0.1372
307.6344	0.1306
307.8462	0.1327
308.0579	0.1328
308.2696	0.1213
308.4813	0.1317
308.693	0.1269
308.9046	0.1246
309.1163	0.1269
309.328	0.1147
309.5396	0.1197
309.7512	0.1191
309.9628	0.1175
310.1744	0.1229
310.386	0.1114
310.5976	0.1176
310.8091	0.1128
311.0207	0.1121
311.2322	0.1138
311.4437	0.1223
311.6552	0.1034
311.8667	0.1118
312.0782	0.1131
312.2897	0.1046
312.5012	0.1148
312.7126	0.0994
312.924	0.0993
313.1355	0.1058
313.3469	0.1011
313.5583	0.1007
313.7696	0.1027
313.981	0.1061
314.1924	0.1051
314.4037	0.0966
314.6151	0.0956
314.8264	0.1016
315.0377	0.1035
315.249	0.1018
315.4603	0.1058
315.6716	0.1024
315.8828	0.1033
316.0941	0.0995
316.3053	0.0996
316.5165	0.0943
316.7277	0.0915
316.9389	0.1056
317.1501	0.0937
317.3613	0.0962
317.5724	0.0997
317.7836	0.0922
317.9947	0.0991
318.2058	0.0978
318.417	0.0947
318.6281	0.0983
318.8391	0.0959
319.0502	0.0909
319.2613	0.0945
319.4723	0.093
319.6834	0.0945
319.8944	0.1026
320.1054	0.0917
320.3164	0.1111
320.5274	0.0976
320.7383	0.0907
320.9493	0.1016
321.1602	0.1041
321.3712	0.1057
321.5821	0.097
321.793	0.095
322.0039	0.0948
322.2148	0.0979
322.4257	0.0913
322.6365	0.0997
322.8474	0.0992
323.0582	0.1057
323.269	0.0938
323.4798	0.1004
323.6906	0.0999
323.9014	0.1014
324.1122	0.1061
324.3229	0.1055
324.5337	0.0923
324.7444	0.1065
324.9551	0.1055
325.1658	0.1057
325.3765	0.0946
325.5872	0.0965
325.7979	0.1068
326.0085	0.1048
326.2192	0.1058
326.4298	0.1028
326.6404	0.1082
326.851	0.098
327.0616	0.1041
327.2722	0.1095
327.4828	0.1
327.6933	0.1073
327.9039	0.1062
328.1144	0.0969
328.3249	0.1032
328.5354	0.1022
328.7459	0.1043
328.9564	0.1004
329.1669	0.109
329.3773	0.1095
329.5878	0.1123
329.7982	0.1028
330.0086	0.1059
330.219	0.1085
330.4294	0.1027
330.6398	0.1118
330.8502	0.1055
331.0605	0.097
331.2708	0.1093
331.4812	0.1039
331.6915	0.1094
331.9018	0.1052
332.1121	0.1073
332.3224	0.1127
332.5326	0.098
332.7429	0.1094
332.9531	0.1092
333.1633	0.1098
333.3735	0.1063
333.5837	0.1081
333.7939	0.1082
334.0041	0.1005
334.2143	0.1039
334.4244	0.1035
334.6346	0.1046
334.8447	0.1024
335.0548	0.1115
335.2649	0.0987
335.475	0.1008
335.685	0.1154
335.8951	0.1086
336.1051	0.1042
336.3152	0.108
336.5252	0.1078
336.7352	0.1079
336.9452	0.1036
337.1552	0.1061
337.3652	0.107
337.5751	0.1109
337.7851	0.1063
337.995	0.1151
338.2049	0.1032
338.4148	0.107
338.6247	0.1036
338.8346	0.1152
339.0445	0.1066
339.2543	0.1099
339.4642	0.1153
339.674	0.114
339.8838	0.1053
340.0936	0.1163
340.3034	0.1197
340.5132	0.1143
340.7229	0.1189
340.9327	0.119
341.1424	0.1218
341.3522	0.1166
341.5619	0.1242
341.7716	0.1233
341.9813	0.1283
342.1909	0.1203
342.4006	0.1208
342.6102	0.1153
342.8199	0.1168
343.0295	0.1171
343.2391	0.1243
343.4487	0.1251
343.6583	0.1224
343.8679	0.1231
344.0774	0.1324
344.287	0.1353
344.4965	0.1178
344.706	0.1251
344.9155	0.1383
345.125	0.138
345.3345	0.1288
345.544	0.1213
345.7534	0.1303
345.9629	0.1247
346.1723	0.1361
346.3817	0.1353
346.5911	0.1337
346.8005	0.1283
347.0099	0.1306
347.2193	0.1384
347.4286	0.1467
347.638	0.1408
347.8473	0.1316
348.0566	0.136
348.2659	0.1259
348.4752	0.1378
348.6845	0.134
348.8937	0.143
349.103	0.1315
349.3122	0.1343
349.5214	0.1286
349.7306	0.1338
349.9398	0.13
350.149	0.1305
350.3582	0.1373
350.5674	0.1393
350.7765	0.1436
350.9856	0.1414
351.1948	0.1388
351.4039	0.145
351.613	0.1349
351.822	0.1378
352.0311	0.1443
352.2402	0.1419
352.4492	0.1475
352.6582	0.1466
352.8672	0.1464
353.0762	0.1521
353.2852	0.1523
353.4942	0.1553
353.7032	0.1511
353.9121	0.1451
354.1211	0.1526
354.33	0.1438
354.5389	0.1519
354.7478	0.1455
354.9567	0.1471
355.1655	0.1479
355.3744	0.1517
355.5833	0.1457
355.7921	0.1521
356.0009	0.145
356.2097	0.1547
356.4185	0.153
356.6273	0.1542
356.8361	0.1452
357.0448	0.1545
357.2536	0.1631
357.4623	0.1522
357.671	0.1585
357.8797	0.1678
358.0884	0.1593
358.2971	0.1668
358.5057	0.1663
358.7144	0.1695
358.923	0.1661
359.1316	0.162
359.3402	0.1749
359.5488	0.1645
359.7574	0.1673
359.966	0.1658
360.1746	0.1659
360.3831	0.1771
360.5916	0.1711
360.8002	0.1807
361.0087	0.1824
361.2172	0.1746
361.4256	0.1763
361.6341	0.179
361.8426	0.1945
362.051	0.1759
362.2594	0.174
362.4678	0.1783
362.6762	0.1829
362.8846	0.1877
363.093	0.1834
363.3014	0.1822
363.5097	0.1842
363.718	0.1901
363.9264	0.1748
364.1347	0.1997
364.343	0.1906
364.5513	0.1869
364.7595	0.1858
364.9678	0.1867
365.176	0.1895
365.3842	0.1832
365.5925	0.1821
365.8007	0.1971
366.0089	0.2019
366.217	0.1889
366.4252	0.1942
366.6333	0.1888
366.8415	0.2019
367.0496	0.1959
367.2577	0.2002
367.4658	0.1983
367.6739	0.2074
367.882	0.1903
368.09	0.1951
368.2981	0.2066
368.5061	0.1978
368.7141	0.2061
368.9221	0.1887
369.1301	0.2053
369.3381	0.206
369.5461	0.2073
369.754	0.2049
369.962	0.2011
370.1699	0.2138
370.3778	0.2053
370.5857	0.207
370.7936	0.2054
371.0015	0.2038
371.2093	0.2057
371.4172	0.2277
371.625	0.2016
371.8328	0.2134
372.0406	0.2243
372.2484	0.2066
372.4562	0.2223
372.664	0.2148
372.8717	0.2087
373.0795	0.2122
373.2872	0.2241
373.4949	0.2076
373.7026	0.22
373.9103	0.2062
374.118	0.2115
374.3256	0.2188
374.5333	0.2023
374.7409	0.2137
374.9485	0.2139
375.1561	0.2231
375.3637	0.2155
375.5713	0.2276
375.7789	0.2204
375.9864	0.2186
376.194	0.2188
376.4015	0.2211
376.609	0.2325
376.8165	0.2272
377.024	0.2167
377.2315	0.2312
377.4389	0.2154
377.6464	0.2215
377.8538	0.2293
378.0612	0.2207
378.2686	0.2321
378.476	0.2293
378.6834	0.2302
378.8908	0.2359
379.0981	0.241
379.3055	0.2378
379.5128	0.2301
379.7201	0.2262
379.9274	0.243
380.1347	0.2363
380.342	0.2296
380.5492	0.2426
380.7565	0.235
380.9637	0.248
381.1709	0.2387
381.3781	0.2239
381.5853	0.2443
381.7925	0.2273
381.9997	0.2389
382.2068	0.2364
382.4139	0.2399
382.6211	0.2378
382.8282	0.2363
383.0353	0.2437
383.2424	0.2418
383.4494	0.2473
383.6565	0.2403
383.8635	0.2543
384.0706	0.2459
384.2776	0.2341
384.4846	0.2441
384.6916	0.2565
384.8986	0.2484
385.1055	0.2413
385.3125	0.2505
385.5194	0.2448
385.7263	0.2393
385.9333	0.2507
386.1402	0.2391
386.347	0.259
386.5539	0.2455
386.7608	0.2465
386.9676	0.2484
387.1744	0.2345
387.3813	0.2384
387.5881	0.2404
387.7948	0.2351
388.0016	0.2288
388.2084	0.2469
388.4151	0.2397
388.6219	0.2431
388.8286	0.2586
389.0353	0.2431
389.242	0.2274
389.4487	0.2263
389.6553	0.2336
389.862	0.2299
390.0686	0.2313
390.2753	0.2301
390.4819	0.2235
390.6885	0.2225
390.8951	0.239
391.1016	0.2279
391.3082	0.2252
391.5147	0.2259
391.7213	0.2298
391.9278	0.223
392.1343	0.2408
392.3408	0.221
392.5473	0.2235
392.7537	0.2214
392.9602	0.2162
393.1666	0.2216
393.373	0.2162
393.5794	0.2211
393.7858	0.2154
393.9922	0.2147
394.1986	0.2089
394.4049	0.223
394.6113	0.2208
394.8176	0.2033
395.0239	0.2119
395.2302	0.1978
395.4365	0.2044
395.6428	0.1978
395.8491	0.1931
396.0553	0.2066
396.2615	0.2017
396.4678	0.2117
396.674	0.2008
396.8802	0.2041
397.0863	0.2004
397.2925	0.1985
397.4987	0.199
397.7048	0.2009
397.9109	0.2062
398.117	0.2024
398.3231	0.2087
398.5292	0.1998
398.7353	0.2074
398.9413	0.2038
399.1474	0.1994
399.3534	0.1995
399.5594	0.1957
399.7654	0.2037
399.9714	0.1939
400.1774	0.1996
400.3833	0.2011
400.5893	0.1959
400.7952	0.1961
401.0011	0.1953
401.207	0.1965
401.4129	0.1972
401.6188	0.1796
401.8247	0.2067
402.0305	0.1968
402.2364	0.2004
402.4422	0.1964
402.648	0.2034
402.8538	0.2051
403.0596	0.1916
403.2654	0.1827
403.4711	0.1907
403.6768	0.2088
403.8826	0.1988
404.0883	0.1915
404.294	0.1984
404.4997	0.1968
404.7054	0.1884
404.911	0.2081
405.1167	0.2089
405.3223	0.1998
405.5279	0.1988
405.7335	0.2004
405.9391	0.1967
406.1447	0.1949
406.3502	0.1907
406.5558	0.1886
406.7613	0.1937
406.9668	0.2113
407.1724	0.1941
407.3778	0.2046
407.5833	0.1796
407.7888	0.1996
407.9942	0.2011
408.1997	0.2061
408.4051	0.2023
408.6105	0.2096
408.8159	0.2003
409.0213	0.2043
409.2267	0.1928
409.432	0.2027
409.6374	0.1973
409.8427	0.2045
410.048	0.1997
410.2533	0.187
410.4586	0.1921
410.6639	0.1887
410.8691	0.1991
411.0744	0.194
411.2796	0.187
411.4848	0.1853
411.69	0.2004
411.8952	0.1892
412.1004	0.1871
412.3056	0.1986
412.5107	0.1955
412.7158	0.192
412.921	0.1992
413.1261	0.1897
413.3312	0.195
413.5362	0.1875
413.7413	0.1871
413.9464	0.1903
414.1514	0.181
414.3564	0.1916
414.5614	0.1949
414.7664	0.1944
414.9714	0.1855
415.1764	0.1889
415.3813	0.1877
415.5863	0.1784
415.7912	0.2057
415.9961	0.1964
416.201	0.1988
416.4059	0.1918
416.6108	0.1833
416.8156	0.1907
417.0205	0.1997
417.2253	0.1869
417.4301	0.1844
417.6349	0.1994
417.8397	0.1839
418.0445	0.1819
418.2492	0.1848
418.454	0.1877
418.6587	0.1831
418.8634	0.1817
419.0681	0.1804
419.2728	0.1714
419.4775	0.173
419.6822	0.1874
419.8868	0.1767
420.0915	0.1789
420.2961	0.1788
420.5007	0.1848
420.7053	0.1718
420.9099	0.1702
421.1144	0.1856
421.319	0.1694
421.5235	0.183
421.728	0.1774
421.9325	0.1825
422.137	0.172
422.3415	0.1853
422.546	0.17
422.7504	0.1796
422.9549	0.1674
423.1593	0.1659
423.3637	0.1762
423.5681	0.1758
423.7725	0.1712
423.9769	0.1661
424.1812	0.1597
424.3856	0.1668
424.5899	0.1676
424.7942	0.1638
424.9985	0.1691
425.2028	0.1578
425.4071	0.1574
425.6113	0.173
425.8156	0.1618
426.0198	0.1637
426.224	0.1446
426.4282	0.146
426.6324	0.1645
426.8366	0.151
427.0407	0.1544
427.2449	0.1542
427.449	0.1528
427.6531	0.1496
427.8572	0.1478
428.0613	0.1403
428.2654	0.1381
428.4694	0.1588
428.6735	0.1564
428.8775	0.1424
429.0815	0.1373
429.2855	0.1519
429.4895	0.1356
429.6935	0.1329
429.8975	0.14
430.1014	0.1281
430.3053	0.1353
430.5093	0.1494
430.7132	0.1301
430.9171	0.1372
431.1209	0.141
431.3248	0.1237
431.5286	0.1237
431.7325	0.1194
431.9363	0.1223
432.1401	0.1241
432.3439	0.1218
432.5477	0.1109
432.7514	0.1229
432.9552	0.117
433.1589	0.1186
433.3627	0.1197
433.5664	0.1165
433.7701	0.1084
433.9737	0.1
434.1774	0.1095
434.3811	0.0961
434.5847	0.1099
434.7883	0.1048
434.9919	0.0956
435.1955	0.0869
435.3991	0.0979
435.6027	0.0979
435.8062	0.1017
436.0098	0.092
436.2133	0.095
436.4168	0.0942
436.6203	0.0959
436.8238	0.0899
437.0272	0.0919
437.2307	0.0899
437.4341	0.0901
437.6375	0.0919
437.841	0.083
438.0443	0.0828
438.2477	0.0814
438.4511	0.0848
438.6545	0.07
438.8578	0.0762
439.0611	0.0733
439.2644	0.0863
439.4677	0.0762
439.671	0.0759
439.8743	0.0775
440.0775	0.0615
440.2808	0.0624
440.484	0.0748
440.6872	0.0599
440.8904	0.067
441.0936	0.0603
441.2967	0.0614
441.4999	0.0547
441.703	0.0528
441.9062	0.0601
442.1093	0.0506
442.3124	0.0585
442.5155	0.0569
442.7185	0.0456
442.9216	0.051
443.1246	0.0565
443.3276	0.0504
443.5307	0.0418
443.7337	0.0536
443.9366	0.0576
444.1396	0.0449
444.3426	0.0425
444.5455	0.0422
444.7484	0.0421
444.9513	0.036
445.1542	0.0503
445.3571	0.04
445.56	0.0338
445.7628	0.0449
445.9657	0.0493
446.1685	0.041
446.3713	0.0376
446.5741	0.0445
446.7769	0.0352
446.9797	0.0331
447.1824	0.0313
447.3852	0.0327
447.5879	0.0374
447.7906	0.0445
447.9933	0.0335
448.196	0.0269
448.3986	0.0331
448.6013	0.0254
448.8039	0.0337
449.0066	0.0333
449.2092	0.0178
449.4118	0.0293
449.6143	0.0293
449.8169	0.0154
450.0195	0.0184
450.222	0.0096
450.4245	0.0225
450.627	0.0284
450.8295	0.0179
451.032	0.026
451.2345	0.0123
451.4369	0.0175
451.6394	0.0208
451.8418	0.0088
452.0442	0.0105
452.2466	0.0196
452.449	0.0139
452.6513	0.0214
452.8537	0.0267
453.056	0.0051
453.2583	0.0087
453.4607	0.0159
453.663	0.0204
453.8652	0.0166
454.0675	0.0171
454.2697	0.0185
454.472	0.0107
454.6742	0.0093
454.8764	0.0083
455.0786	0.026
455.2808	0.0133
455.4829	0.0128
455.6851	-0.006
455.8872	0.0044
456.0893	0.0061
456.2915	0.009
456.4935	0.009
456.6956	0.004
456.8977	0.012
457.0997	0.0045
457.3018	0.0068
457.5038	0.0025
457.7058	-0.0014
457.9078	0.0121
458.1098	-0.0016
458.3117	0.0071
458.5137	0.0102
458.7156	0.0121
458.9175	0.0011
459.1194	0.0066
459.3213	0.0064
459.5232	0.0002
459.725	-0.0015
459.9269	0.0051
460.1287	0.0072
460.3305	0.0059
460.5323	0.0113
460.7341	0.0016
460.9359	0.0008
461.1376	0.0007
461.3394	-0.004
461.5411	0.0054
461.7428	-0.0083
461.9445	-0.0024
462.1462	-0.0026
462.3479	0.0016
462.5495	-0.0006
462.7512	-0.0083
462.9528	-0.0121
463.1544	-0.008
463.356	-0.0112
463.5576	-0.0016
463.7592	-0.0069
463.9607	-0.0046
464.1623	0.0009
464.3638	0.0036
464.5653	0.002
464.7668	-0.0065
464.9683	0.0122
465.1697	-0.0043
465.3712	-0.0002
465.5726	-0.0001
465.7741	-0.0089
465.9755	-0.0054
466.1769	-0.0115
466.3782	-0.0077
466.5796	0.0035
466.7809	-0.0066
466.9823	-0.0041
467.1836	-0.0056
467.3849	-0.0059
467.5862	-0.0026
467.7875	-0.0069
467.9887	0.0008
468.19	-0.0059
468.3912	-0.0005
468.5924	-0.0091
468.7936	-0.0146
468.9948	0.0039
469.196	0.0065
469.3972	0.0088
469.5983	0.0185
469.7994	-0.0042
470.0006	-0.0043
470.2017	0.0028
470.4027	-0.0028
470.6038	0.0002
470.8049	-0.0076
471.0059	-0.0028
471.2069	0.0046
471.408	-0.0105
471.6089	-0.0061
471.8099	-0.0041
472.0109	-0.0037
472.2119	-0.0039
472.4128	0.0007
472.6137	-0.0108
472.8146	-0.0123
473.0155	-0.0068
473.2164	-0.0099
473.4173	-0.0079
473.6181	-0.0003
473.819	-0.0002
474.0198	-0.0036
474.2206	-0.0051
474.4214	-0.0081
474.6222	-0.0108
474.8229	-0.0065
475.0237	-0.0027
475.2244	-0.0076
475.4251	-0.0084
475.6258	0.0044
475.8265	-0.0077
476.0272	-0.0082
476.2278	0.0016
476.4285	-0.009
476.6291	-0.0093
476.8297	-0.0032
477.0303	-0.0111
477.2309	-0.0051
477.4315	0.0011
477.632	-0.0107
477.8326	-0.0022
478.0331	-0.009
478.2336	0.0003
478.4341	-0.0091
478.6346	0.002
478.8351	-0.0063
479.0355	-0.0063
479.236	-0.0086
479.4364	-0.0113
479.6368	-0.0014
479.8372	-0.0038
480.0376	0.0011
480.2379	-0.0056
480.4383	-0.0009
480.6386	-0.0071
480.8389	-0.0099
481.0392	-0.0095
481.2395	-0.0065
481.4398	-0.0059
481.6401	-0.0171
481.8403	-0.0067
482.0405	-0.012
482.2408	0.0049
482.441	0.0008
482.6411	0.0012
482.8413	-0.0088
483.0415	-0.0097
483.2416	-0.0024
483.4417	-0.0097
483.6419	0.0045
483.8419	-0.0075
484.042	-0.0046
484.2421	-0.0128
484.4422	-0.0107
484.6422	-0.0063
484.8422	-0.0119
485.0422	-0.0045
485.2422	-0.0102
485.4422	0.0009
485.6422	-0.0058
485.8421	-0.0062
486.042	-0.0079
486.242	-0.0067
486.4419	-0.0046
486.6417	-0.001
486.8416	-0.0047
487.0415	-0.0031
487.2413	-0.005
487.4411	-0.003
487.641	-0.0073
487.8408	-0.0086
488.0405	-0.0108
488.2403	-0.0079
488.4401	-0.004
488.6398	-0.0093
488.8395	-0.0088
489.0392	-0.0071
489.2389	-0.0103
489.4386	-0.0035
489.6383	-0.0088
489.8379	-0.0055
490.0376	-0.0026
490.2372	-0.0046
490.4368	-0.0178
490.6364	-0.0015
490.836	-0.0092
491.0355	-0.0055
491.2351	-0.0137
491.4346	-0.0082
491.6341	-0.0046
491.8336	-0.0106
492.0331	-0.0144
492.2326	-0.0045
492.432	-0.0062
492.6315	-0.0056
492.8309	-0.0113
493.0303	-0.0061
493.2297	-0.0103
493.4291	-0.0128
493.6284	-0.0022
493.8278	-0.007
494.0271	-0.0056
494.2264	-0.0043
494.4257	-0.0077
494.625	-0.0082
494.8243	-0.002
495.0236	-0.0154
495.2228	-0.0073
495.422	-0.0056
495.6213	-0.0083
495.8205	-0.0022
496.0196	-0.0089
496.2188	-0.005
496.418	0.0055
496.6171	-0.0051
496.8162	-0.005
497.0153	-0.002
497.2144	-0.003
497.4135	-0.0014
497.6126	-0.0131
497.8116	-0.0001
498.0107	-0.0076
498.2097	-0.0063
498.4087	-0.0044
498.6077	-0.0054
498.8067	-0.009
499.0056	-0.0084
499.2046	0.0028
499.4035	-0.0083
499.6024	-0.0048
499.8013	-0.0005
500.0002	-0.0132
500.199	-0.0004
500.3979	0.0012
500.5967	-0.0131
500.7956	-0.0145
500.9944	-0.0053
501.1932	-0.0069
501.3919	-0.0094
501.5907	-0.0061
501.7895	0.0018
501.9882	-0.0111
502.1869	-0.004
502.3856	0.0008
502.5843	-0.0101
502.783	-0.0087
502.9816	-0.0129
503.1803	-0.0102
503.3789	0.0004
503.5775	-0.0012
503.7761	-0.0051
503.9747	-0.006
504.1732	-0.0055
504.3718	-0.0066
504.5703	-0.0034
504.7689	-0.0041
504.9674	-0.004
505.1658	-0.0091
505.3643	-0.0092
505.5628	0.0036
505.7612	-0.0125
505.9597	-0.0062
506.1581	-0.0078
506.3565	-0.0095
506.5549	-0.0048
506.7532	-0.0061
506.9516	-0.0052
507.1499	-0.0079
507.3482	-0.0034
507.5465	-0.0015
507.7448	-0.0092
507.9431	-0.0058
508.1414	-0.0086
508.3396	-0.0043
508.5379	-0.0057
508.7361	-0.0005
508.9343	-0.0105
509.1325	-0.0089
509.3306	-0.0038
509.5288	-0.0026
509.7269	-0.0151
509.9251	-0.0054
510.1232	0.0015
510.3213	-0.0107
510.5193	-0.0018
510.7174	-0.0013
510.9154	-0.0033
511.1135	-0.0097
511.3115	-0.0141
511.5095	-0.0155
511.7075	-0.0029
511.9055	-0.0074
512.1034	-0.0086
512.3014	-0.0023
512.4993	-0.0091
512.6972	-0.0031
512.8951	-0.0043
513.093	-0.0129
513.2908	0.0004
513.4887	-0.0113
513.6865	-0.0027
513.8844	-0.0039
514.0822	-0.0022
514.2799	-0.0047
514.4777	0.0009
514.6755	-0.0054
514.8732	-0.0105
515.0709	-0.0078
515.2687	-0.0095
515.4664	-0.0076
515.664	-0.0025
515.8617	-0.0076
516.0594	-0.0011
516.257	0.0023
516.4546	-0.0083
516.6522	-0.0038
516.8498	-0.0106
517.0474	-0.0011
517.2449	-0.0064
517.4425	-0.007
517.64	-0.0044
517.8375	-0.0081
518.035	0.002
518.2325	-0.0073
518.43	-0.008
518.6274	-0.0028
518.8249	-0.0039
519.0223	-0.0122
519.2197	-0.0017
519.4171	-0.0005
519.6145	-0.0103
519.8118	-0.004
520.0092	-0.0067
520.2065	-0.0083
520.4038	-0.0049
520.6011	-0.0086
520.7984	-0.0088
520.9956	-0.0106
521.1929	-0.0127
521.3901	-0.0111
521.5874	-0.0073
521.7846	0.0014
521.9818	-0.0039
522.1789	-0.0051
522.3761	-0.0066
522.5732	-0.004
522.7704	-0.0093
522.9675	-0.0043
523.1646	-0.0023
523.3617	-0.0061
523.5587	-0.0041
523.7558	-0.0041
523.9528	-0.0039
524.1498	-0.0013
524.3468	-0.0024
524.5438	-0.0027
524.7408	-0.0087
524.9378	-0.006
525.1347	-0.0008
525.3316	0
525.5285	-0.0059
525.7254	-0.0086
525.9223	-0.0025
526.1192	-0.0035
526.316	-0.0071
526.5129	-0.0096
526.7097	-0.0135
526.9065	-0.0069
527.1033	0.0011
527.3	-0.0068
527.4968	-0.0071
527.6935	-0.0055
527.8903	-0.001
528.087	-0.0131
528.2837	-0.0054
528.4804	0.0009
528.677	-0.009
528.8737	-0.0087
529.0703	0.0008
529.2669	0.0063
529.4635	-0.0083
529.6601	-0.0028
529.8567	-0.0007
530.0532	-0.0021
530.2498	-0.0048
530.4463	-0.0053
530.6428	-0.0041
530.8393	-0.0029
531.0358	-0.0093
531.2322	-0.0025
531.4287	-0.0143
531.6251	-0.0088
531.8215	-0.001
532.0179	-0.0063
532.2143	0.0006
532.4107	0.002
532.607	-0.0053
532.8034	-0.0103
532.9997	-0.0068
533.196	-0.0088
533.3923	0.0007
533.5886	-0.0003
533.7848	0.0009
533.9811	-0.0019
534.1773	-0.0084
534.3735	-0.0051
534.5697	-0.008
534.7659	-0.0006
534.9621	0.0005
535.1582	-0.0088
535.3544	-0.0097
535.5505	-0.0003
535.7466	-0.0045
535.9427	-0.0071
536.1387	0.0017
536.3348	-0.0028
536.5308	-0.0079
536.7269	-0.0109
536.9229	-0.0049
537.1189	-0.0057
537.3148	-0.0016
537.5108	0.0007
537.7068	-0.0097
537.9027	-0.0047
538.0986	0.0038
538.2945	-0.0051
538.4904	-0.0072
538.6863	-0.0085
538.8821	-0.0035
539.078	-0.0087
539.2738	-0.0095
539.4696	-0.0062
539.6654	-0.0083
539.8611	-0.0068
540.0569	-0.0064
540.2526	-0.005
540.4484	0.0005
540.6441	-0.0051
540.8398	-0.0067
541.0355	-0.0041
541.2311	0.0009
541.4268	-0.003
541.6224	-0.0033
541.818	-0.0039
542.0136	-0.0127
542.2092	-0.0073
542.4048	-0.0064
542.6003	-0.0048
542.7959	-0.0067
542.9914	-0.0045
543.1869	-0.0049
543.3824	-0.0091
543.5779	-0.0082
543.7734	-0.0143
543.9688	-0.0155
544.1642	-0.0071
544.3596	-0.0042
544.555	-0.0095
544.7504	-0.0047
544.9458	-0.0044
545.1411	0.0073
545.3365	-0.0013
545.5318	0.0009
545.7271	0.0016
545.9224	-0.0044
546.1177	-0.0113
546.3129	-0.0019
546.5081	-0.0029
546.7034	-0.0051
546.8986	-0.0064
547.0938	-0.0076
547.289	-0.0036
547.4841	-0.0063
547.6793	-0.0067
547.8744	0.002
548.0695	-0.0073
548.2646	-0.0039
548.4597	-0.002
548.6548	-0.0029
548.8498	-0.0046
549.0448	-0.0025
549.2399	-0.0045
549.4349	-0.003
549.6298	-0.0059
549.8248	-0.0063
550.0198	-0.005
550.2147	-0.0054
550.4096	-0.0082
550.6045	-0.0038
550.7994	0.011
550.9943	-0.0022
551.1892	-0.0003
551.384	-0.01
551.5788	-0.0051
551.7737	-0.0025
551.9685	-0.007
552.1632	0.0001
552.358	-0.0068
552.5528	-0.0068
552.7475	-0.0067
552.9422	-0.0052
553.1369	-0.0127
553.3316	-0.0046
553.5263	-0.0037
553.7209	-0.0064
553.9156	-0.0094
554.1102	-0.0069
554.3048	-0.0089
554.4994	-0.0021
554.694	-0.0034
554.8885	-0.0038
555.0831	-0.0073
555.2776	-0.0018
555.4721	-0.0065
555.6666	-0.0075
555.8611	-0.0071
556.0555	-0.0075
556.25	-0.0013
556.4444	-0.0068
556.6388	-0.006
556.8332	-0.0058
557.0276	-0.0045
557.222	-0.0077
557.4163	-0.0001
557.6107	-0.003
557.805	-0.0054
557.9993	-0.0039
558.1936	-0.0074
558.3879	0.0013
558.5821	-0.0093
558.7764	-0.0088
558.9706	-0.0029
559.1648	-0.0017
559.359	-0.0083
559.5532	-0.0054
559.7473	-0.0052
559.9415	-0.0111
560.1356	-0.0084
560.3297	-0.0104
560.5238	-0.007
560.7179	-0.0056
560.9119	-0.0041
561.106	-0.0014
561.3	-0.0024
561.494	-0.0066
561.688	-0.0039
561.882	-0.0038
562.076	-0.0072
562.2699	-0.0069
562.4639	-0.003
562.6578	-0.0013
562.8517	-0.0042
563.0456	-0.0026
563.2395	-0.0034
563.4333	-0.0048
563.6272	-0.007
563.821	-0.0054
564.0148	0.0032
564.2086	-0.0094
564.4024	-0.005
564.5961	-0.0056
564.7899	-0.0004
564.9836	-0.0018
565.1773	0.0004
565.371	-0.0004
565.5647	-0.001
565.7584	0.0024
565.952	0.0004
566.1456	-0.0068
566.3393	-0.0046
566.5329	-0.0023
566.7264	0.0012
566.92	-0.0005
567.1136	-0.0006
567.3071	0.001
567.5006	0.0019
567.6941	0.0008
567.8876	-0.0021
568.0811	-0.0026
568.2745	-0.0091
568.468	-0.005
568.6614	-0.0124
568.8548	-0.0104
569.0482	-0.0078
569.2416	-0.0037
569.4349	0.0019
569.6283	-0.0062
569.8216	-0.006
570.0149	-0.0082
570.2082	-0.0055
570.4015	-0.0067
570.5947	-0.0026
570.788	-0.005
570.9812	-0.004
571.1744	-0.0077
571.3676	-0.0073
571.5608	-0.0037
571.754	-0.0052
571.9471	-0.0031
572.1402	-0.0046
572.3333	-0.0036
572.5264	-0.0044
572.7195	0.001
572.9126	-0.002
573.1057	-0.0065
573.2987	-0.0003
573.4917	-0.0075
573.6847	-0.0054
573.8777	-0.0067
574.0707	-0.0003
574.2636	-0.0038
574.4566	-0.0047
574.6495	0.0003
574.8424	-0.0037
575.0353	-0.0036
575.2281	0.0001
575.421	-0.0055
575.6138	-0.0018
575.8067	0.0003
575.9995	0.001
576.1923	-0.0065
576.385	-0.007
576.5778	-0.0031
576.7706	-0.0022
576.9633	-0.0007
577.156	0.0002
577.3487	-0.0022
577.5414	0.0019
577.734	0.0023
577.9267	0.0006
578.1193	-0.0062
578.3119	-0.0008
578.5045	-0.0034
578.6971	-0.0007
578.8897	-0.0075
579.0822	-0.0023
579.2747	0.0043
579.4673	-0.003
579.6598	-0.002
579.8522	0.0043
580.0447	-0.0065
580.2372	0.0022
580.4296	0.0049
580.622	-0.0001
580.8144	-0.0012
581.0068	-0.0004
581.1992	0.0032
581.3915	-0.0036
581.5839	-0.0047
581.7762	-0.0064
581.9685	-0.0022
582.1608	-0.0073
582.353	0.001
582.5453	-0.0055
582.7375	0.0011
582.9298	-0.0046
583.122	-0.0006
583.3142	-0.0024
583.5063	-0.0051
583.6985	-0.0037
583.8906	-0.0004
584.0827	-0.0072
584.2749	-0.0053
584.4669	-0.0046
584.659	-0.0079
584.8511	-0.0041
585.0431	-0.0064
585.2352	-0.0053
585.4272	-0.0072
585.6192	-0.0044
585.8111	-0.0041
586.0031	0.0034
586.195	-0.0026
586.387	-0.0007
586.5789	-0.0055
586.7708	-0.0059
586.9627	-0.0056
587.1545	-0.007
587.3464	-0.0076
587.5382	-0.0018
587.73	-0.0052
587.9218	-0.0042
588.1136	0.0001
588.3053	-0.0035
588.4971	-0.0083
588.6888	-0.0047
588.8805	-0.0025
589.0722	-0.0045
589.2639	-0.0014
589.4556	-0.003
589.6472	-0.0032
589.8389	-0.0049
590.0305	-0.007
590.2221	-0.0019
590.4137	-0.0087
590.6052	-0.0068
590.7968	-0.0009
590.9883	-0.0027
591.1798	-0.0064
591.3713	-0.0049
591.5628	-0.0052
591.7543	-0.0017
591.9458	-0.0031
592.1372	-0.0048
592.3286	-0.0044
592.52	-0.0041
592.7114	0.0034
592.9028	-0.0025
593.0941	-0.0004
593.2855	-0.0043
593.4768	-0.0041
593.6681	0.0027
593.8594	-0.0042
594.0506	-0.0011
594.2419	0.0031
594.4331	-0.0068
594.6244	-0.0045
594.8156	-0.0043
595.0067	-0.005
595.1979	-0.0045
595.3891	-0.0048
595.5802	-0.0036
595.7713	0.002
595.9624	-0.0047
596.1535	0.003
596.3446	-0.001
596.5357	0.0032
596.7267	-0.0001
596.9177	0.0037
597.1087	-0.002
597.2997	-0.0003
597.4907	-0.0037
597.6817	-0.0053
597.8726	-0.0109
598.0635	-0.0064
598.2544	-0.0011
598.4453	-0.0074
598.6362	-0.0065
598.827	-0.004
599.0179	-0.0037
599.2087	-0.0088
599.3995	-0.0059
599.5903	-0.0016
599.7811	-0.0036
599.9718	-0.0021
600.1626	-0.0018
600.3533	-0.0008
600.544	-0.0035
600.7347	0.0019
600.9254	-0.0051
601.116	-0.0075
601.3067	-0.005
601.4973	-0.0066
601.6879	0.0015
601.8785	-0.0045
602.0691	-0.0006
602.2596	-0.0007
602.4502	-0.005
602.6407	0.0037
602.8312	-0.0006
603.0217	-0.0018
603.2122	-0.0018
603.4027	-0.0019
603.5931	-0.0064
603.7835	0
603.9739	-0.0005
604.1643	0.0004
604.3547	0.0009
604.5451	-0.0013
604.7354	-0.0041
604.9257	-0.0057
605.116	-0.0014
605.3063	-0.0007
605.4966	-0.003
605.6869	-0.0001
605.8771	-0.0015
606.0673	-0.0041
606.2575	-0.0061
606.4477	-0.0059
606.6379	-0.006
606.8281	-0.0077
607.0182	-0.0114
607.2083	-0.0034
607.3985	-0.0073
607.5885	-0.0035
607.7786	-0.0028
607.9687	-0.0021
608.1587	-0.0057
608.3488	-0.0069
608.5388	-0.0008
608.7288	-0.0045
608.9187	0.0005
609.1087	-0.0035
609.2986	-0.0046
609.4886	-0.0007
609.6785	-0.0008
609.8684	-0.0047
610.0582	0.0013
610.2481	-0.0017
610.4379	-0.0008
610.6278	0.002
610.8176	0.0044
611.0074	-0.0054
611.1971	-0.0022
611.3869	-0.0035
611.5766	0.0002
611.7664	-0.0023
611.9561	-0.0018
612.1458	0.0037
612.3354	-0.0047
612.5251	-0.0104
612.7147	-0.0009
612.9044	-0.0032
613.094	0.0036
613.2836	-0.0055
613.4731	-0.0072
613.6627	-0.0084
613.8522	-0.0047
614.0417	-0.0054
614.2313	-0.0062
614.4207	-0.004
614.6102	0.0013
614.7997	-0.0053
614.9891	-0.0001
615.1785	-0.0036
615.3679	-0.0001
615.5573	-0.0006
615.7467	0.0007
615.9361	-0.0027
616.1254	-0.0037
616.3147	-0.0021
616.504	-0.005
616.6933	-0.0003
616.8826	-0.0032
617.0718	-0.0061
617.2611	-0.0002
617.4503	-0.0023
617.6395	-0.0025
617.8287	-0.0052
618.0179	0.0011
618.207	-0.0072
618.3961	-0.0054
618.5853	-0.0037
618.7744	-0.0009
618.9634	-0.0002
619.1525	-0.0082
619.3416	-0.0066
619.5306	-0.0011
619.7196	-0.0048
619.9086	-0.0011
620.0976	-0.0009
620.2866	-0.0011
620.4755	-0.0061
620.6645	-0.0012
620.8534	-0.0004
621.0423	-0.0081
621.2312	-0.007
621.42	0.0009
621.6089	-0.0005
621.7977	-0.0044
621.9865	-0.0026
622.1753	-0.0028
622.3641	0.0002
622.5529	0.0016
622.7416	-0.0006
622.9303	0.0017
623.1191	-0.0031
623.3078	0
623.4964	-0.0029
623.6851	0.002
623.8737	-0.0018
624.0624	0.0014
624.251	0.0003
624.4396	0.004
624.6282	-0.002
624.8167	0.0021
625.0053	-0.0007
625.1938	0.0021
625.3823	-0.0015
625.5708	0.0016
625.7593	-0.0054
625.9477	-0.0092
626.1362	-0.0051
626.3246	-0.005
626.513	-0.0067
626.7014	-0.0046
626.8898	-0.0028
627.0781	-0.0063
627.2665	-0.004
627.4548	-0.0061
627.6431	-0.0065
627.8314	-0.0068
628.0197	-0.0011
628.2079	-0.0016
628.3962	0.0029
628.5844	-0.0011
628.7726	-0.0017
628.9608	0.0003
629.1489	0.0018
629.3371	0.0056
629.5252	0.0034
629.7134	0.0001
629.9015	-0.0013
630.0895	0.0004
630.2776	-0
630.4657	-0.003
630.6537	-0.0035
630.8417	-0.0025
631.0297	0.0035
631.2177	0.0012
631.4057	0.0027
631.5936	-0.0029
631.7815	-0.0019
631.9695	-0.0031
632.1574	-0.0086
632.3452	-0.0042
632.5331	-0.0048
632.7209	-0.0047
632.9088	-0.0051
633.0966	-0.0048
633.2844	-0.0051
633.4722	-0.0051
633.6599	-0.002
633.8477	-0.0017
634.0354	-0.0074
634.2231	-0.0061
634.4108	-0.0028
634.5985	-0.0011
634.7861	-0.0064
634.9738	-0.0063
635.1614	-0.005
635.349	-0.0035
635.5366	-0.0056
635.7242	-0.0023
635.9117	-0.0002
636.0993	-0.0021
636.2868	-0.0006
636.4743	-0.0019
636.6618	-0.0058
636.8492	-0.0003
637.0367	0.0006
637.2241	-0.0021
637.4115	-0.0036
637.5989	-0.0014
637.7863	-0.0034
637.9737	-0.0079
638.161	-0.0006
638.3484	-0.0017
638.5357	0.0002
638.723	-0.0033
638.9103	-0.0001
639.0975	0.0011
639.2848	-0.0036
639.472	0.0021
639.6592	0.0029
639.8464	-0.0004
640.0336	-0.0047
640.2208	0.0017
640.4079	-0.0025
640.595	-0.0007
640.7821	-0.0008
640.9692	0.0033
641.1563	0.0034
641.3434	0.0066
641.5304	-0.0047
641.7174	0.005
641.9044	0.0072
642.0914	-0.0027
642.2784	0.0018
642.4653	0.0018
642.6523	-0.0003
642.8392	0.0055
643.0261	0.004
643.213	0.002
643.3999	-0.0011
643.5867	-0.0021
643.7735	0.0055
643.9604	0.0003
644.1472	-0
644.3339	-0.0038
644.5207	-0.0037
644.7075	-0.0029
644.8942	-0.0007
645.0809	-0.0016
645.2676	-0.0023
645.4543	0.0029
645.6409	-0.0026
645.8276	0.0026
646.0142	-0.0022
646.2008	-0.0063
646.3874	-0.0036
646.574	-0.0069
646.7605	0.0006
646.9471	-0.0083
647.1336	-0.0073
647.3201	-0.0084
647.5066	-0.0028
647.6931	0.0023
647.8795	-0.0059
648.0659	-0.0053
648.2524	-0.0041
648.4388	-0.0061
648.6252	-0.0008
648.8115	-0.0172
648.9979	-0.006
649.1842	-0.012
649.3705	-0.0055
649.5568	-0.0019
649.7431	-0.0034
649.9294	-0.0037
650.1156	-0.0031
650.3018	-0.01
650.488	-0.0086
650.6742	-0.0031
650.8604	0.0012
651.0466	0.0008
651.2327	-0.0028
651.4188	-0.0008
651.6049	0.0047
651.791	0.0039
651.9771	-0.001
652.1632	0.0031
652.3492	-0.0004
652.5352	-0.0046
652.7212	-0.0018
652.9072	0.0029
653.0932	0.0013
653.2791	-0.0036
653.465	-0.0031
653.651	-0.0043
653.8369	-0.002
654.0227	0.0024
654.2086	-0.0009
654.3944	-0.0079
654.5803	-0.007
654.7661	-0.0062
654.9519	-0.0038
655.1377	-0.0032
655.3234	-0.0001
655.5092	-0.0001
655.6949	-0.0001
655.8806	-0.0001
656.0663	-0.0001
656.2519	-0.0001
656.4376	-0.0037
656.6232	-0.0063
656.8088	-0.0042
656.9945	-0.0017
657.18	-0.0005
657.3656	-0.0004
657.5511	-0.0028
657.7367	-0.0049
657.9222	-0.0005
658.1077	-0.0002
658.2932	-0.0042
658.4786	0.0009
658.6641	-0.0035
658.8495	-0.0036
659.0349	-0.0026
659.2203	-0.0097
659.4057	-0.0086
659.591	-0.0054
659.7764	-0.0044
659.9617	-0.0077
660.147	-0.0036
660.3323	-0.002
660.5176	-0.0061
660.7028	-0.0053
660.888	-0.004
661.0733	0.0015
661.2585	-0.0083
661.4436	-0.0005
661.6288	-0.0067
661.8139	0.0028
661.9991	-0.0036
662.1842	0.0015
662.3693	-0.0039
662.5544	-0.0025
662.7394	-0.0009
662.9245	0.0025
663.1095	0.0025
663.2945	-0.0005
663.4795	-0.0044
663.6644	-0.0082
663.8494	-0.0035
664.0343	-0.0036
664.2193	-0.0045
664.4042	-0.0085
664.589	-0.0058
664.7739	-0.0017
664.9587	-0.0023
665.1436	-0.0022
665.3284	0.0022
665.5132	-0.0027
665.698	0.0045
665.8827	0.0018
666.0675	-0.0061
666.2522	-0.0112
666.4369	-0.0069
666.6216	-0.0056
666.8063	-0.0057
666.9909	-0.0092
667.1756	-0.0081
667.3602	-0.0096
667.5448	-0.0108
667.7294	-0.0026
667.9139	-0.0063
668.0985	-0.0099
668.283	-0.0068
668.4675	-0.0125
668.652	-0.0062
668.8365	-0.0075
669.0209	-0.0081
669.2054	-0.0067
669.3898	-0.0076
669.5742	-0.0054
669.7586	-0.0041
669.943	-0.0061
670.1273	-0.007
670.3117	-0.0047
670.496	-0.0064
670.6803	-0.0007
670.8646	-0.0067
671.0488	-0.0006
671.2331	-0.0039
671.4173	0.0027
671.6015	-0.0047
671.7857	-0.0066
671.9699	-0.004
672.1541	-0.0057
672.3382	-0.0084
672.5223	-0.0047
672.7064	-0.0127
672.8905	-0.0097
673.0746	-0.0135
673.2587	-0.0172
673.4427	-0.0147
673.6267	-0.0126
673.8107	-0.0137
673.9947	-0.0104
674.1787	-0.0109
674.3626	-0.0108
674.5465	-0.0068
674.7304	-0.002
674.9143	-0.002
675.0982	-0.0048
675.2821	-0.0027
675.4659	-0.0049
675.6497	-0.0037
675.8335	-0.0024
676.0173	-0.0061
676.2011	-0.0068
676.3849	-0.002
676.5686	-0.0016
676.7523	-0.0052
676.936	0.0006
677.1197	-0.0022
677.3034	-0.0032
677.487	-0.0075
677.6706	-0.0083
677.8542	-0.0044
678.0378	-0.0038
678.2214	-0.0125
678.405	-0.0031
678.5885	-0.0096
678.772	-0.0024
678.9555	-0.0082
679.139	-0.0055
679.3225	-0.0127
679.5059	-0.006
679.6894	0
679.8728	-0.0022
680.0562	-0.0012
680.2395	-0.0051
680.4229	0.0013
680.6062	0.0003
680.7896	-0.0015
680.9729	-0.0028
681.1562	0.0037
681.3394	0.0008
681.5227	0.0013
681.7059	-0.0022
681.8891	-0.0039
682.0723	-0.008
682.2555	-0.0034
682.4387	-0.0024
682.6218	-0.0075
682.805	-0.0075
682.9881	-0.0037
683.1712	0.0082
683.3542	0.0019
683.5373	-0.0028
683.7203	-0.0027
683.9034	-0.0009
684.0864	-0.0055
684.2694	-0.0018
684.4523	-0.0001
684.6353	-0.0022
684.8182	-0.0029
685.0011	-0.0035
685.184	-0.0012
685.3669	-0.0034
685.5498	-0.0031
685.7326	0.0005
685.9154	-0.0052
686.0982	-0.0036
686.281	-0.0061
686.4638	-0.007
686.6465	-0.0041
686.8293	-0.0037
687.012	-0.0027
687.1947	-0.0068
687.3774	-0.0062
687.56	-0.0084
687.7427	-0.0024
687.9253	-0.0042
688.1079	0.002
688.2905	-0.001
688.4731	0.0031
688.6556	-0.0057
688.8382	-0.0059
689.0207	-0.0018
689.2032	0.0013
689.3857	-0.0005
689.5681	0.0031
689.7506	0
689.933	0.0022
690.1154	0.0003
690.2978	0.0004
690.4802	0.0014
690.6626	0.0103
690.8449	0.0037
691.0272	0.0057
691.2095	0.0021
691.3918	-0.0044
691.5741	-0.0042
691.7563	-0.0009
691.9386	-0.0025
692.1208	-0.0039
692.303	-0.001
692.4852	-0.0047
692.6673	-0.0002
692.8495	-0.0077
693.0316	-0.0033
693.2137	-0.0089
693.3958	-0.0016
693.5778	-0.0007
693.7599	-0.007
693.9419	-0.0088
694.1239	-0.0047
694.3059	-0.0117
694.4879	-0.005
694.6699	-0.0088
694.8518	-0.0086
695.0337	-0.0074
695.2157	-0.0051
695.3975	-0.0061
695.5794	-0.004
695.7613	-0.0052
695.9431	-0.0044
696.1249	-0.0044
696.3067	-0.007
696.4885	0.0019
696.6703	-0.002
696.852	-0.0053
697.0337	-0.0011
697.2154	-0.0023
697.3971	-0.0067
697.5788	-0.0073
697.7605	-0.0006
697.9421	-0.0041
698.1237	-0.0021
698.3053	-0.0027
698.4869	-0.0012
698.6685	-0.0043
698.85	-0.0071
699.0315	-0.0005
699.213	0.0071
699.3945	0
699.576	0.0075
699.7575	-0.002
699.9389	-0.0043
700.1203	-0.0062
700.3017	-0.0039
700.4831	-0.0019
700.6645	-0.0027
700.8458	-0.0054
701.0271	-0.0055
701.2084	-0.0112
701.3897	-0.0067
701.571	-0.0025
701.7523	-0.0002
701.9335	0.0024
702.1147	0.0072
702.2959	-0.0075
702.4771	0.0006
702.6583	-0.0006
702.8394	-0.0017
703.0205	0.0027
703.2016	-0.0028
703.3827	0.0036
703.5638	-0.0071
703.7449	-0.0042
703.9259	-0.0023
704.1069	-0.0036
704.2879	-0.0021
704.4689	-0.0049
704.6499	-0.0054
704.8308	0.0025
705.0117	-0.0005
705.1927	-0.0057
705.3735	0.0006
705.5544	0.0023
705.7353	0.0011
705.9161	-0.0024
706.0969	0.0026
706.2777	-0.0072
706.4585	0.0005
706.6393	-0.0002
706.82	-0.0045
707.0007	-0.0049
707.1815	0.0022
707.3621	-0.0038
707.5428	-0.003
707.7235	0.0011
707.9041	-0.0023
708.0847	-0.0054
708.2653	-0.0049
708.4459	-0.005
708.6265	-0.0051
708.807	-0.0016
708.9875	-0.0034
709.168	-0.0024
709.3485	-0.0015
709.529	-0.003
709.7095	-0.0032
709.8899	-0.012
710.0703	0.0001
710.2507	-0.0005
710.4311	0
710.6115	-0.0015
710.7918	-0.0003
710.9721	0.0049
711.1524	0.0006
711.3327	0.0024
711.513	0.0006
711.6932	-0.0048
711.8735	0.0014
712.0537	-0.0038
712.2339	-0.0058
712.4141	-0.002
712.5942	-0.0005
712.7744	0.0037
712.9545	-0.0011
713.1346	-0.0033
713.3147	0.0067
713.4947	-0.0051
713.6748	-0.0038
713.8548	-0.0037
714.0348	-0.0037
714.2148	-0.0038
714.3948	-0.0079
714.5748	-0.0065
714.7547	-0.0054
714.9346	-0.0019
715.1145	-0.0057
715.2944	-0.001
715.4743	-0.0048
715.6541	0.0001
715.834	-0.0018
716.0138	-0.0067
716.1936	-0.0004
716.3733	-0.0085
716.5531	-0.0041
716.7328	-0.0027
716.9126	-0.0031
717.0923	-0.0006
717.2719	-0.009
717.4516	-0.002
717.6312	-0.0028
717.8109	-0.0013
717.9905	-0.0044
718.1701	-0.0035
718.3496	0.0015
718.5292	-0.0019
718.7087	-0.003
718.8882	-0.003
719.0677	-0.0006
719.2472	-0.0052
719.4267	-0.01
719.6061	-0.0066
719.7856	-0.0032
719.965	-0.0122
720.1443	-0.005
720.3237	-0.0028
720.5031	-0.0064
720.6824	-0.0041
720.8617	-0.0137
721.041	-0.0036
721.2203	-0.0081
721.3995	-0.0012
721.5788	-0.0066
721.758	-0.001
721.9372	-0.0041
722.1164	-0.0063
722.2956	-0.0107
722.4747	-0.0025
722.6538	-0.0061
722.8329	0.0001
723.012	-0.0046
723.1911	0.0001
723.3702	0.0023
723.5492	-0.0005
723.7282	-0.0056
723.9072	-0.0029
724.0862	-0.0059
724.2652	-0.0009
724.4441	-0.0087
724.623	0.0003
724.8019	-0.0059
724.9808	-0.0017
725.1597	0.0002
725.3385	0.0037
725.5174	0.0011
725.6962	-0.0112
725.875	0.0005
726.0538	-0.0029
726.2325	-0.006
726.4112	0
726.59	-0.0009
726.7687	0.0008
726.9474	0.0009
727.126	-0.0047
727.3047	-0.005
727.4833	-0.0001
727.6619	-0.0143
727.8405	0.0049
728.0191	-0.0013
728.1976	-0.0096
728.3762	-0.0055
728.5547	-0.0048
728.7332	-0.0062
728.9116	-0.016
729.0901	-0.0136
729.2686	-0.0096
729.447	-0.0054
729.6254	-0.0029
729.8038	-0.004
729.9821	-0.0027
730.1605	-0.0044
730.3388	-0.0011
730.5171	-0.0027
730.6954	-0.0019
730.8737	-0.0023
731.0519	-0.001
731.2302	0.0013
731.4084	0.0032
731.5866	-0.0011
731.7648	0.0019
731.9429	-0.0013
732.1211	0.0013
732.2992	-0.0023
732.4773	-0.002
732.6554	-0.0045
732.8335	-0.0073
733.0115	-0.0048
733.1896	-0.013
733.3676	-0.0082
733.5456	-0.0026
733.7235	-0.0019
733.9015	-0.0035
734.0794	-0.0023
734.2574	-0.0016
734.4353	-0.0038
734.6131	0.0013
734.791	-0.0036
734.9689	-0.0032
735.1467	0.0059
735.3245	-0.002
735.5023	-0.0108
735.68	-0.0053
735.8578	-0.0001
736.0355	0.0048
736.2132	-0.0007
736.3909	-0.0016
736.5686	-0.0023
736.7463	-0.0036
736.9239	-0.0027
737.1015	-0.0042
737.2791	-0.0099
737.4567	-0.0093
737.6343	-0.0023
737.8118	-0.0084
737.9894	-0.0035
738.1669	-0.0097
738.3444	-0.0005
738.5218	-0
738.6993	-0.0028
738.8767	-0.0007
739.0541	-0.0098
739.2315	-0.0072
739.4089	-0.0003
739.5863	-0.0093
739.7636	-0.0034
739.9409	-0.0039
740.1182	-0.001
740.2955	-0.0037
740.4728	-0.003
740.65	-0.0017
740.8272	0.0012
741.0044	-0.0019
741.1816	-0.0009
741.3588	0.0061
741.5359	0.003
741.7131	0.0052
741.8902	0.004
742.0673	-0.0002
742.2444	-0.0073
742.4214	0.0009
742.5985	-0.0084
742.7755	-0.0022
742.9525	0.0026
743.1295	-0.0029
743.3064	-0.0063
743.4834	-0.0016
743.6603	-0.0001
743.8372	0.0019
744.0141	0.0006
744.191	-0.0033
744.3678	-0.0042
744.5446	0.0028
744.7215	-0.0138
744.8982	0.0016
745.075	-0.0013
745.2518	-0.0029
745.4285	0.0038
745.6052	0.0019
745.7819	-0.0001
745.9586	-0.0024
746.1353	-0.0092
746.3119	0.0029
746.4885	-0.004
746.6651	-0.001
746.8417	-0.0039
747.0183	-0.0011
747.1948	-0.0044
747.3714	-0.0042
747.5479	-0.0049
747.7244	0.0019
747.9008	0.0016
748.0773	0.0084
748.2537	0.0037
748.4301	0.0033
748.6065	0.0001
748.7829	0.008
748.9593	0.0013
749.1356	-0.0037
749.3119	0.0002
749.4882	0.0054
749.6645	-0.0034
749.8408	-0.0041
750.017	-0.0077
750.1933	0.0017
750.3695	-0.0065
750.5457	-0.0143
750.7218	-0.006
750.898	-0.0022
751.0741	-0.0087
751.2502	-0.0033
751.4263	-0.0045
751.6024	-0.0088
751.7784	0.0023
751.9545	-0.0036
752.1305	0.0025
752.3065	-0.0032
752.4825	0
752.6584	0.0017
752.8344	-0.0024
753.0103	-0.0064
753.1862	0.0045
753.3621	0.0001
753.5379	-0.0015
753.7138	0.001
753.8896	-0.0093
754.0654	-0.0059
754.2412	-0.0124
754.417	-0.0078
754.5927	-0.0009
754.7685	-0.0042
754.9442	-0.0089
755.1199	-0.0151
755.2956	-0.0067
755.4712	-0.0077
755.6469	-0.0102
755.8225	-0.0045
755.9981	-0.0114
756.1736	0.0001
756.3492	-0.0126
756.5248	-0.0014
756.7003	-0.0104
756.8758	-0.0098
757.0513	-0.0072
757.2267	-0.014
757.4022	-0.0093
757.5776	-0.0098
757.753	-0.0073
757.9284	-0.0097
758.1038	-0.0082
758.2791	-0.0148
758.4545	-0.0126
758.6298	-0.0081
758.8051	-0.0109
758.9803	-0.0145
759.1556	-0.0065
759.3308	-0.0076
759.506	-0.013
759.6812	-0.0104
759.8564	-0.0108
760.0316	-0.0078
760.2067	-0.0128
760.3819	-0.0045
760.557	-0.0077
760.732	-0.0091
760.9071	-0.0129
761.0821	-0.0097
761.2572	-0.0096
761.4322	-0.0128
761.6072	-0.0151
761.7821	-0.0144
761.9571	-0.0106
762.132	-0.0122
762.3069	-0.0036
762.4818	-0.0025
762.6567	-0.0059
762.8316	-0.0021
763.0064	-0.0015
763.1812	-0.0023
763.356	0.0064
763.5308	0.0005
763.7055	0.0016
763.8803	-0.0032
764.055	-0.0054
764.2297	0.0038
764.4044	-0.0032
764.579	-0.0012
764.7537	0.0026
764.9283	-0.0106
765.1029	0.0033
765.2775	0.004
765.4521	0.0053
765.6266	0.0055
765.8011	0.0126
765.9756	-0.0006
766.1501	0.0067
766.3246	-0.0045
766.4991	-0.0038
766.6735	-0.0054
766.8479	-0.0101
767.0223	0.0057
767.1967	-0.006
767.371	0.0022
767.5454	-0.0056
767.7197	-0.0044
767.894	0.0012
768.0683	0
768.2425	-0.0031
768.4168	-0.0014
768.591	-0.0001
768.7652	0.0002
768.9394	0.0007
769.1135	0.0025
769.2877	-0.0019
769.4618	0.0018
769.6359	-0.0035
769.81	-0.0032
769.984	-0.0101
770.1581	0.0006
770.3321	0.0023
770.5061	-0.0051
770.6801	0.0026
770.8541	-0.0066
771.028	0.0005
771.202	0.0076
771.3759	0.0009
771.5498	0.0081
771.7236	-0.0019
771.8975	0.0033
772.0713	-0.0024
772.2451	0.0044
772.4189	-0.0032
772.5927	-0.0011
772.7665	-0.0048
772.9402	-0.0005
773.1139	-0.0013
773.2876	0.0002
773.4613	-0.0075
773.635	-0.0022
773.8086	0.0083
773.9822	0.0001
774.1558	-0.0062
774.3294	0.004
774.503	-0.0053
774.6765	-0.0011
774.8501	0.006
775.0236	-0.0102
775.1971	-0.0058
775.3705	-0.001
775.544	-0.0057
775.7174	0.0036
775.8908	-0.0018
776.0642	-0.004
776.2376	-0.0056
776.4109	-0.0087
776.5843	0.0068
776.7576	0.0003
776.9309	-0.0019
777.1041	-0.0046
777.2774	0.0014
777.4506	0.0064
777.6238	0.0014
777.797	0.0012
777.9702	-0.0029
778.1434	-0.0011
778.3165	0.0012
778.4896	-0.0116
778.6627	-0.0097
778.8358	-0.0022
779.0089	-0.0021
779.1819	-0.0038
779.3549	-0.0007
779.5279	-0.0001
779.7009	-0.0109
779.8739	0.0028
780.0468	-0.0031
780.2197	0.0009
780.3926	-0.012
780.5655	-0.01
780.7384	0.0012
780.9112	-0.008
781.0841	-0.0014
781.2569	0.0004
781.4297	-0.0046
781.6024	-0.0022
781.7752	0.0011
781.9479	-0.0091
782.1206	0.0012
782.2933	0.0012
782.466	-0.004
782.6386	-0.0022
782.8113	-0.0154
782.9839	-0.0092
783.1565	-0.0076
783.329	-0.0052
783.5016	-0.0128
783.6741	-0.0061
783.8466	-0.0079
784.0191	-0.0106
784.1916	-0.0025
784.3641	-0.0033
784.5365	0.0013
784.7089	0.0067
784.8813	0.0056
785.0537	0.0146
785.2261	0.0094
785.3984	-0.0052
785.5707	0.0026
785.743	0.0079
785.9153	-0.0024
786.0876	0.0002
786.2598	0.0035
786.432	0.0051
786.6042	0.0112
786.7764	0.006
786.9486	-0.0012
787.1207	-0.0099
787.2928	0.0001
787.4649	-0.0122
787.637	-0.0046
787.8091	-0.0025
787.9811	0.0098
788.1532	-0.0015
788.3252	-0.0017
788.4972	-0.0001
788.6691	-0.002
788.8411	0.0001
789.013	-0.0045
789.1849	0.0061
789.3568	-0.0148
789.5287	0.0003
789.7005	-0.0008
789.8723	-0.0015
790.0442	-0.0084
790.2159	0.0061
790.3877	-0.0065
790.5595	-0.0058
790.7312	0.0047
790.9029	-0.0056
791.0746	0.0016
791.2463	0.0028
791.4179	-0.0125
791.5896	0.0052
791.7612	-0.0058
791.9328	-0.0002
792.1044	-0.0109
792.2759	0.003
792.4474	-0.0081
792.619	-0.0109
792.7905	-0.0071
792.9619	-0.0041
793.1334	0.0025
793.3048	-0.0098
793.4762	0.0005
793.6476	-0.0178
793.819	-0.0067
793.9904	-0.0067
794.1617	-0.0145
794.333	-0.0075
794.5043	-0.0117
794.6756	0.0063
794.8469	-0.0015
795.0181	-0.0111
795.1893	-0.0062
795.3605	-0.0078
795.5317	-0.0078
795.7029	-0.0092
795.874	-0.0126
796.0452	-0.0119
796.2163	-0.0089
796.3873	-0.0091
796.5584	-0.0125
796.7294	-0.0107
796.9005	-0.0139
797.0715	-0.013
797.2425	-0.0148
797.4134	-0.0148
797.5844	-0.02
797.7553	-0.0053
797.9262	-0.0103
798.0971	-0.0141
798.2679	-0.0114
798.4388	-0.014
798.6096	-0.0152
798.7804	-0.0131
798.9512	-0.0149
799.122	-0.0098
799.2927	-0.0156
799.4635	-0.0078
799.6342	-0.0097
799.8049	-0.0156
799.9755	-0.016
800.1462	-0.0215
800.3168	-0.0072
800.4874	-0.0042
800.658	-0.0184
800.8286	-0.0118
800.9991	-0.0152
801.1696	-0.0058
801.3402	-0.0052
801.5106	-0.016
801.6811	-0.0204
801.8516	-0.003
802.022	-0.0286
802.1924	-0.0201
802.3628	-0.0151
802.5332	-0.0215
802.7035	-0.0141
802.8739	-0.0139
803.0442	-0.0135
803.2145	-0.0171
803.3847	-0.0294
803.555	-0.0093
803.7252	-0.0107
803.8954	-0.0153
804.0656	-0.006
804.2358	-0.0109
804.4059	-0.0021
804.5761	-0.0168
804.7462	-0.0114
804.9163	-0.0191
805.0864	-0.0084
805.2564	-0.0104
805.4264	-0.0194
805.5965	-0.0147
805.7665	0
805.9364	-0.0083
806.1064	-0.0058
806.2763	-0.0078
806.4462	-0.0002
806.6161	-0.0088
806.786	-0.0103
806.9559	-0.0125
807.1257	-0.0131
807.2955	-0.011
807.4653	-0.0058
807.6351	-0.0015
807.8048	0.003
807.9746	-0.0025
808.1443	-0.0075
808.314	-0.0007
808.4837	0.0029
808.6533	-0.0016
808.8229	0.0107
808.9926	-0.0005
809.1622	-0.0116
809.3317	0.0162
809.5013	-0.0039
809.6708	0.0005
809.8403	-0.0142
810.0098	0.0115
810.1793	-0.014
810.3488	0.0023
810.5182	-0.0141
810.6876	-0.0054
810.857	-0.0127
811.0264	-0.0116
811.1958	-0.0005
811.3651	-0.016
811.5344	-0.0058
811.7037	-0.0147
811.873	-0.004
812.0422	-0.0191
812.2115	-0.0085
812.3807	0.0031
812.5499	0.0003
812.7191	-0.0072
812.8882	0.0028
813.0574	-0.0112
813.2265	-0.0062
813.3956	-0.0004
813.5646	-0.0049
813.7337	0.0044
813.9027	0.0031
814.0718	-0.0063
814.2407	0.0025
814.4097	-0.0033
814.5787	0.0003
814.7476	-0.0077
814.9165	0.0102
815.0854	-0.0152
815.2543	-0.0007
815.4232	-0.0017
815.592	0.0019
815.7608	0.0061
815.9296	0.0028
816.0984	-0.013
816.2671	0.0065
816.4359	-0.0013
816.6046	-0.0029
816.7733	-0.0083
816.942	-0.0059
817.1106	-0.0094
817.2793	-0.0022
817.4479	-0.0019
817.6165	-0.0178
817.785	-0.008
817.9536	0.0009
818.1221	-0.0024
818.2906	-0.0059
818.4591	-0.0154
818.6276	0.0057
818.7961	-0.0091
818.9645	-0.0105
819.1329	-0.0027
819.3013	-0.0128
819.4697	0.0026
819.638	-0.0017
819.8064	-0.0066
819.9747	0.0005
820.143	0.0046
820.3113	-0.0028
820.4795	0.006
820.6477	-0.0029
820.816	-0.003
820.9842	-0.0088
821.1523	-0.031
821.3205	-0.0048
821.4886	-0.0093
821.6567	-0.0023
821.8248	-0.0179
821.9929	-0.0114
822.1609	-0.0107
822.329	-0.0084
822.497	-0.0014
822.665	-0.0068
822.833	-0.0224
823.0009	-0.0123
823.1688	-0.0052
823.3367	-0.0082
823.5046	-0.0134
823.6725	-0.0154
823.8404	-0.003
824.0082	-0.0165
824.176	0.0047
824.3438	-0.0068
824.5116	-0.0033
824.6793	0.0008
824.847	-0.0035
825.0147	-0.011
825.1824	-0.0175
825.3501	-0.0083
825.5177	-0.0111
825.6854	0.0076
825.853	0.0089
826.0206	0.0067
826.1881	-0.0076
826.3557	-0.0032
826.5232	0.007
826.6907	-0.008
826.8582	-0.007
827.0257	-0.0082
827.1931	0.0063
827.3605	-0.0034
827.528	0.0075
827.6953	-0.0153
827.8627	-0.0154
828.03	-0.006
828.1974	0.0008
828.3647	0.0129
828.532	-0.0076
828.6992	-0.0088
828.8665	-0.0175
829.0337	-0.0043
829.2009	-0.0164
829.3681	-0.0207
829.5352	-0.0036
829.7024	-0.0046
829.8695	-0.0376
830.0366	-0.0303
830.2037	0.0039
830.3707	-0.0194
830.5378	-0.0153
830.7048	-0.0357
830.8718	-0.01
831.0388	-0.0095
831.2057	-0.0095
831.3727	-0.0168
831.5396	-0.0036
831.7065	-0.0087
831.8734	0.0126
832.0402	-0.0174
832.2071	-0.003
832.3739	-0.0049
832.5407	-0.0144
832.7075	-0.004
832.8742	0.0081
833.041	0.0087
833.2077	-0.0268
833.3744	0.005
833.541	-0.0008
833.7077	-0.0129
833.8743	0.0037
834.0409	0.0139
834.2075	0.0013
834.3741	-0.0058
834.5407	0.0151
834.7072	0.0029
834.8737	-0.0152
835.0402	-0.0347
835.2067	-0.0124
835.3731	-0.014
835.5395	-0.0159
835.706	-0.0167
835.8723	-0.0099
836.0387	-0.0252
836.2051	-0.0037
836.3714	0.0116
836.5377	-0.0083
836.704	-0.0024
836.8703	-0.0242
837.0365	0.0106
837.2027	0.0079
837.3689	-0.0099
837.5351	-0.0199
837.7013	-0.0096
837.8674	0.0227
838.0335	-0.0108
838.1997	0.0053
838.3657	0.0076
838.5318	-0.0071
838.6978	-0.0251
838.8639	0.0069
839.0299	0.002
839.1958	0.0091
839.3618	0.0187
839.5277	-0.0074
839.6937	0.0062
839.8596	-0.0087
840.0254	-0.0079
840.1913	0.0068
840.3571	0.0127
840.523	0.0064
840.6888	-0.0044
840.8545	-0.0009
841.0203	-0.0137
841.186	0.0003
841.3517	0.0119
841.5174	-0.0268
841.6831	0.0138
841.8488	0.001
842.0144	0.0204
842.18	0.0119
842.3456	0.005
842.5112	-0.0009
842.6767	0.0004
842.8422	0.0139
843.0077	-0.0033
843.1732	-0.0023
843.3387	-0.0299
843.5042	-0.001
843.6696	0.0153
843.835	-0.0234
844.0004	0.0317
844.1657	-0.0122
844.3311	0.0125
844.4964	-0.0018
844.6617	-0.0011
844.827	0.0146
844.9923	0.0019
845.1575	-0.0094
845.3227	-0.0004
845.4879	-0.0034
845.6531	-0.0007
845.8183	-0.0338
845.9834	-0.0234
846.1485	0.0444
846.3136	-0.0363
846.4787	-0.0082
846.6438	0.0055
846.8088	0.0123
846.9738	-0.0062
847.1388	-0.0013
847.3038	0.0108
847.4687	0.0175
847.6337	0.0018
847.7986	0.0162
847.9635	0.0171
848.1284	-0.0075
848.2932	0.0015
848.458	0.0072
848.6228	0.002
848.7876	-0.0481
848.9524	0.0571
849.1172	-0.0413
849.2819	0.0089
849.4466	-0.0005
849.6113	-0.0024
849.7759	-0.037
849.9406	0.0126
850.1052	0.0682
850.2698	-0.0098
850.4344	-0.0047
850.599	-0.0407
850.7635	0.0478
850.928	-0.0398
851.0925	0.0039
851.257	0.018
851.4215	0.0019
851.5859	0.0647
851.7503	-0.0088
851.9147	-0.0251
852.0791	0.0299
852.2434	-0.0118
852.4078	0.0425
852.5721	-0.0208
852.7364	-0.0538
852.9007	0.0116
853.0649	-0.0134
853.2291	-0.0111
853.3934	0.0111
853.5575	0.0001
853.7217	-0.0464
853.8859	0.0435
854.05	0.0323
854.2141	0.035
854.3782	0.0124
854.5423	-0.0066
854.7063	-0.0355
854.8703	-0.0234
855.0343	-0.0079
855.1983	-0.0349
855.3623	0.0211
855.5262	0.0666
855.6901	-0.0027
855.854	0.0182
856.0179	0.0502
856.1818	-0.0215
856.3456	-0.0246
856.5094	-0.001
856.6732	-0.0187
856.837	0.0012
857.0008	0.0011
857.1645	0.0116
857.3282	0.0066
857.4919	-0.0626
857.6556	0.1137
857.8192	0.0387
857.9828	0.0177
858.1465	-0.0165
858.31	0.0263
858.4736	-0.0886
858.6372	0.0047
858.8007	-0.0388
858.9642	-0.0238
859.1277	0.0698
859.2911	0.0092
859.4546	0.0469
859.618	-0.088
859.7814	0.0221
859.9448	-0.0658
860.1081	-0.0143
860.2715	0.0736
860.4348	0.0276
860.5981	0.1008
860.7614	-0.1614
860.9246	-0.0416
861.0879	-0.0954
861.2511	-0.018
861.4143	-0.0837
861.5774	0.0172
861.7406	0.0039
861.9037	-0.0385
862.0668	-0.0367
862.2299	-0.022
862.393	-0.0416
862.556	0.0732
862.7191	-0.027
862.8821	-0.0186
863.0451	0.0677
863.208	-0.1011
863.371	0.1773
863.5339	-0.0768
863.6968	-0.1032
863.8597	0.0513
864.0225	-0.1058
864.1854	0.1558
864.3482	-0.0931
864.511	0.1163
864.6737	-0.1248
864.8365	0.0988
864.9992	-0.1085
865.1619	-0.0613
865.3246	-0.0945
865.4873	0.1262
865.65	-0.0621
865.8126	-0.0779
865.9752	-0.0613
866.1378	-0.155
866.3004	0.0062
866.4629	-0.2582
866.6254	-0.0431
866.7879	-0.2116
866.9504	-0.1922
867.1129	0.0482
867.2753	-0.0555
867.4377	-0.0983
867.6001	0.3743
867.7625	0.1566
867.9249	-0.0557
868.0872	-0.0441
868.2495	-0.0231
868.4118	-0.0618
868.5741	-0.0965
868.7363	0.1764
868.8986	0.1203
869.0608	-0.0837
869.223	-0.0673
869.3851	-0.2116
869.5473	-0.1847
869.7094	-0.3091
869.8715	-0.0686
870.0336	0.0204
870.1957	-0.1568
870.3577	-0.152
870.5197	-0.2781
870.6817	-0.1859
870.8437	-0.2198
871.0057	-0.2325
871.1676	-0.2573
871.3295	-0.0101
871.4914	-0.0807
871.6533	-0.0962
871.8151	-0.2225
871.977	0.0374
872.1388	0.0464
872.3006	-0.173
872.4623	-0.0796
872.6241	0.0313
872.7858	0.0059
872.9475	-0.0414
873.1092	-0.2006
873.2709	-0.0079
873.4325	-0.4363
873.5941	-0.1838
873.7557	0.0005
873.9173	-0.0872
874.0789	-0.295
874.2404	-0.253
874.4019	-0.3731
874.5634	-0.1927
874.7249	-0.2169
874.8863	-0.0327
875.0478	-0.3372
875.2092	-0.3501
875.3706	-0.1158
875.5319	-0.2482
875.6933	0.0184
875.8546	-0.2766
876.0159	-0.0882
876.1772	-0.3001
876.3385	-0.2178
876.4997	-0.2851
876.6609	0.0011
876.8221	-0.2243
876.9833	-0.6604
877.1445	-0
877.3056	-0.1847
877.4667	-1.0636
877.6278	0.3822
877.7889	-0.1342
877.9499	-0.3158
878.111	-0.0785
878.272	-0.1077
878.433	0.0339
878.5939	0.1474
878.7549	-0.2678
878.9158	-0.0362
879.0767	0.2671
879.2376	0.0902
879.3984	-0.3608
879.5593	-0.1743
879.7201	0.7221
879.8809	-0.1318
880.0417	-0.1543
880.2024	0.0225
880.3632	-0.3995
880.5239	-0
880.6846	-0.4875
880.8452	0.242
881.0059	-0.1744
881.1665	-0
881.3271	0.0701
881.4877	-0.2303
881.6483	-0
881.8088	0.0132
881.9693	0.0591
882.1298	0.0591
882.2903	0.0591
