Data from MonoPyChalIsomerACN10uM450nmA_Absorbance_13-11-32-491.txt Node
Date: Tue Jul 09 13:11:32 BST 2024
User: LASERRRRR
Spectrometer: FLMT03099
Trigger mode: 0
Integration Time (sec): 2.000000E-1
Scans to average: 1
Electric dark correction enabled: true
Nonlinearity correction enabled: false
Boxcar width: 0
XAxis mode: Wavelengths
Number of Pixels in Spectrum: 3648
>>>>>Begin Spectral Data<<<<<
179.3399	-0.063
179.5586	-0.063
179.7771	-0.063
179.9957	-0.181
180.2143	-0
180.4329	0.3098
180.6514	-0
180.8699	-0
181.0885	-0
181.307	0.2001
181.5255	-0
181.744	-0.1105
181.9625	-0.2109
182.181	-0
182.3994	0.6654
182.6179	-0.5981
182.8363	-0.7386
183.0547	0.2863
183.2732	0.18
183.4916	0.0576
183.71	0.0108
183.9284	0.0439
184.1467	-0.0188
184.3651	0.1074
184.5835	0.0955
184.8018	0.0235
185.0201	0.0581
185.2385	0.0444
185.4568	-0.0407
185.6751	0.0968
185.8934	0.0044
186.1117	0.011
186.3299	-0.012
186.5482	-0.0254
186.7664	0.0369
186.9847	0.0725
187.2029	0.1691
187.4211	0.0322
187.6393	-0.0293
187.8575	0.0999
188.0757	-0.0624
188.2939	0.0012
188.512	0.1984
188.7302	-0.003
188.9483	0.1578
189.1665	0.0294
189.3846	0.0906
189.6027	0.1386
189.8208	0.0453
190.0389	0.3012
190.257	0.1989
190.475	0.112
190.6931	0.2095
190.9111	0.1844
191.1292	0.2839
191.3472	0.2311
191.5652	0.4087
191.7832	0.2968
192.0012	0.2947
192.2192	0.3549
192.4371	0.474
192.6551	0.4333
192.873	0.3831
193.091	0.6069
193.3089	0.5451
193.5268	0.5708
193.7447	0.4859
193.9626	0.498
194.1805	0.4907
194.3984	0.5685
194.6162	0.541
194.8341	0.6249
195.0519	0.5725
195.2697	0.6123
195.4875	0.6354
195.7054	0.7114
195.9231	0.6405
196.1409	0.7341
196.3587	0.6864
196.5765	0.6885
196.7942	0.7391
197.012	0.6146
197.2297	0.6983
197.4474	0.7456
197.6651	0.6552
197.8828	0.7747
198.1005	0.7082
198.3182	0.7542
198.5358	0.683
198.7535	0.7642
198.9711	0.8939
199.1888	0.8161
199.4064	0.9144
199.624	0.7703
199.8416	0.7992
200.0592	0.7311
200.2767	0.815
200.4943	0.906
200.7119	0.8518
200.9294	0.9888
201.1469	0.8247
201.3645	0.88
201.582	0.8692
201.7995	0.762
202.017	0.9709
202.2344	0.7998
202.4519	0.9752
202.6694	0.8444
202.8868	0.812
203.1042	0.9443
203.3217	0.9848
203.5391	0.9456
203.7565	0.9445
203.9739	0.8764
204.1913	0.8058
204.4086	0.8521
204.626	0.9474
204.8433	0.9151
205.0607	1.0627
205.278	0.9434
205.4953	1.0912
205.7126	0.8954
205.9299	0.9677
206.1472	0.9079
206.3644	0.9255
206.5817	1.047
206.7989	0.9158
207.0162	1.1216
207.2334	0.9322
207.4506	0.9452
207.6678	1.0343
207.885	1.0859
208.1022	1.0458
208.3194	1.0584
208.5365	1.0333
208.7537	0.9704
208.9708	1.1351
209.1879	1.0431
209.405	1.0327
209.6222	1.0168
209.8392	1.0305
210.0563	1.0707
210.2734	1.0419
210.4905	1.0762
210.7075	1.0338
210.9245	1.0127
211.1416	1.023
211.3586	1.0967
211.5756	1.0342
211.7926	1.1068
212.0096	1.064
212.2265	1.0277
212.4435	1.06
212.6604	1.0726
212.8774	1.1017
213.0943	0.9987
213.3112	0.9656
213.5281	1.0021
213.745	0.9597
213.9619	0.9832
214.1788	0.9602
214.3956	0.9275
214.6125	0.9254
214.8293	0.848
215.0461	0.8923
215.2629	0.8885
215.4798	0.8424
215.6965	0.847
215.9133	0.859
216.1301	0.8184
216.3469	0.7938
216.5636	0.8191
216.7803	0.7526
216.9971	0.7352
217.2138	0.7261
217.4305	0.7032
217.6472	0.6674
217.8639	0.6336
218.0805	0.6124
218.2972	0.5724
218.5138	0.5358
218.7305	0.4982
218.9471	0.4532
219.1637	0.4369
219.3803	0.4299
219.5969	0.3869
219.8135	0.3614
220.0301	0.334
220.2466	0.35
220.4632	0.3393
220.6797	0.3168
220.8962	0.315
221.1127	0.2908
221.3292	0.3018
221.5457	0.2788
221.7622	0.2739
221.9787	0.2726
222.1951	0.283
222.4116	0.273
222.628	0.2741
222.8444	0.2637
223.0608	0.264
223.2772	0.2702
223.4936	0.2668
223.71	0.2709
223.9264	0.2859
224.1427	0.2529
224.3591	0.2575
224.5754	0.2595
224.7917	0.2852
225.008	0.2675
225.2243	0.2725
225.4406	0.285
225.6569	0.2784
225.8732	0.294
226.0894	0.2722
226.3057	0.2878
226.5219	0.2846
226.7381	0.2823
226.9543	0.2788
227.1705	0.2791
227.3867	0.2994
227.6029	0.3015
227.8191	0.3003
228.0352	0.2942
228.2513	0.2999
228.4675	0.3021
228.6836	0.3207
228.8997	0.3095
229.1158	0.3111
229.3319	0.3095
229.548	0.3244
229.764	0.3189
229.9801	0.33
230.1961	0.3399
230.4121	0.3151
230.6282	0.3344
230.8442	0.3331
231.0602	0.3366
231.2761	0.3391
231.4921	0.3469
231.7081	0.3585
231.924	0.353
232.14	0.3721
232.3559	0.3601
232.5718	0.361
232.7877	0.3491
233.0036	0.364
233.2195	0.3645
233.4353	0.3651
233.6512	0.3769
233.867	0.3763
234.0829	0.3732
234.2987	0.3838
234.5145	0.383
234.7303	0.3925
234.9461	0.4009
235.1619	0.3974
235.3776	0.3759
235.5934	0.3853
235.8091	0.381
236.0249	0.3831
236.2406	0.3866
236.4563	0.3944
236.672	0.4053
236.8877	0.3942
237.1034	0.402
237.319	0.3993
237.5347	0.3985
237.7503	0.4114
237.966	0.4158
238.1816	0.415
238.3972	0.3962
238.6128	0.4053
238.8284	0.3976
239.0439	0.4043
239.2595	0.4217
239.475	0.4084
239.6906	0.4208
239.9061	0.4155
240.1216	0.4087
240.3371	0.4324
240.5526	0.4213
240.7681	0.4108
240.9836	0.4157
241.199	0.4215
241.4145	0.4027
241.6299	0.4123
241.8453	0.4069
242.0607	0.3913
242.2761	0.3939
242.4915	0.3869
242.7069	0.3876
242.9223	0.3708
243.1376	0.3821
243.353	0.3641
243.5683	0.3629
243.7836	0.3535
243.9989	0.3486
244.2142	0.3419
244.4295	0.3464
244.6448	0.3349
244.86	0.3317
245.0753	0.3183
245.2905	0.3094
245.5057	0.3103
245.721	0.3065
245.9362	0.2918
246.1514	0.2958
246.3665	0.3012
246.5817	0.2708
246.7969	0.2871
247.012	0.2774
247.2271	0.27
247.4423	0.2766
247.6574	0.2635
247.8725	0.2593
248.0876	0.2499
248.3026	0.2537
248.5177	0.26
248.7328	0.2355
248.9478	0.2495
249.1628	0.2376
249.3779	0.2373
249.5929	0.2257
249.8079	0.2288
250.0228	0.2315
250.2378	0.2384
250.4528	0.219
250.6677	0.2194
250.8827	0.2144
251.0976	0.216
251.3125	0.214
251.5274	0.2109
251.7423	0.2097
251.9572	0.2156
252.172	0.2142
252.3869	0.2046
252.6017	0.2044
252.8166	0.2078
253.0314	0.2061
253.2462	0.2096
253.461	0.2038
253.6758	0.2029
253.8906	0.2094
254.1053	0.2056
254.3201	0.2059
254.5348	0.1984
254.7496	0.1981
254.9643	0.1933
255.179	0.2026
255.3937	0.2074
255.6083	0.2035
255.823	0.1915
256.0377	0.1891
256.2523	0.1961
256.467	0.2049
256.6816	0.1902
256.8962	0.2051
257.1108	0.1925
257.3254	0.1998
257.54	0.1919
257.7545	0.1995
257.9691	0.1932
258.1836	0.1873
258.3981	0.1921
258.6127	0.1944
258.8272	0.1897
259.0417	0.1972
259.2561	0.1954
259.4706	0.1934
259.6851	0.1878
259.8995	0.1942
260.114	0.1865
260.3284	0.1974
260.5428	0.1934
260.7572	0.193
260.9716	0.1986
261.186	0.1956
261.4003	0.203
261.6147	0.1941
261.829	0.2012
262.0433	0.1971
262.2577	0.1994
262.472	0.1966
262.6863	0.1882
262.9005	0.1963
263.1148	0.2
263.3291	0.1893
263.5433	0.191
263.7576	0.1868
263.9718	0.1959
264.186	0.1865
264.4002	0.1897
264.6144	0.1894
264.8286	0.1845
265.0427	0.1859
265.2569	0.1785
265.471	0.1857
265.6851	0.1805
265.8993	0.1793
266.1134	0.1767
266.3275	0.1783
266.5415	0.1761
266.7556	0.1926
266.9697	0.1814
267.1837	0.1822
267.3978	0.1944
267.6118	0.1908
267.8258	0.1918
268.0398	0.1961
268.2538	0.1921
268.4677	0.205
268.6817	0.19
268.8957	0.1983
269.1096	0.1904
269.3235	0.1868
269.5374	0.1818
269.7514	0.1664
269.9652	0.1728
270.1791	0.167
270.393	0.1611
270.6068	0.1593
270.8207	0.1517
271.0345	0.1651
271.2483	0.1579
271.4622	0.1526
271.676	0.1497
271.8897	0.1552
272.1035	0.1426
272.3173	0.153
272.531	0.1544
272.7448	0.1518
272.9585	0.1502
273.1722	0.1503
273.3859	0.1523
273.5996	0.1382
273.8133	0.1538
274.0269	0.1547
274.2406	0.1426
274.4542	0.1495
274.6679	0.1469
274.8815	0.1496
275.0951	0.1507
275.3087	0.1527
275.5223	0.149
275.7358	0.1479
275.9494	0.1505
276.1629	0.1508
276.3765	0.1548
276.59	0.145
276.8035	0.15
277.017	0.1596
277.2305	0.1563
277.444	0.1478
277.6574	0.1503
277.8709	0.1575
278.0843	0.1597
278.2978	0.1606
278.5112	0.1521
278.7246	0.1519
278.938	0.1548
279.1513	0.1602
279.3647	0.1577
279.5781	0.1573
279.7914	0.1624
280.0047	0.1565
280.2181	0.1589
280.4314	0.1584
280.6447	0.1565
280.8579	0.1611
281.0712	0.1632
281.2845	0.1609
281.4977	0.1671
281.711	0.1627
281.9242	0.1542
282.1374	0.1534
282.3506	0.1543
282.5638	0.1594
282.7769	0.1665
282.9901	0.1558
283.2033	0.1617
283.4164	0.1578
283.6295	0.1734
283.8426	0.1493
284.0557	0.1564
284.2688	0.157
284.4819	0.1516
284.695	0.1618
284.908	0.16
285.1211	0.1583
285.3341	0.1521
285.5471	0.1565
285.7601	0.1611
285.9731	0.1591
286.1861	0.1559
286.3991	0.1667
286.612	0.1638
286.825	0.1566
287.0379	0.1568
287.2508	0.1564
287.4637	0.1583
287.6766	0.152
287.8895	0.1596
288.1024	0.1619
288.3152	0.1588
288.5281	0.1603
288.7409	0.1518
288.9538	0.1561
289.1666	0.1657
289.3794	0.1633
289.5922	0.1573
289.8049	0.1523
290.0177	0.1583
290.2304	0.1509
290.4432	0.1527
290.6559	0.1505
290.8686	0.155
291.0813	0.1581
291.294	0.1621
291.5067	0.1562
291.7194	0.1607
291.932	0.154
292.1447	0.148
292.3573	0.1531
292.5699	0.1632
292.7825	0.1565
292.9951	0.1598
293.2077	0.1487
293.4203	0.1522
293.6328	0.1654
293.8454	0.1489
294.0579	0.1597
294.2704	0.1628
294.4829	0.1617
294.6954	0.1594
294.9079	0.1518
295.1204	0.1525
295.3328	0.1578
295.5453	0.1484
295.7577	0.1431
295.9701	0.1554
296.1825	0.1502
296.3949	0.1503
296.6073	0.1599
296.8197	0.1513
297.0321	0.1498
297.2444	0.1429
297.4567	0.1443
297.6691	0.1531
297.8814	0.1493
298.0937	0.1502
298.306	0.1487
298.5182	0.1437
298.7305	0.1458
298.9428	0.1482
299.155	0.1507
299.3672	0.1473
299.5794	0.1473
299.7916	0.144
300.0038	0.1543
300.216	0.1575
300.4282	0.151
300.6403	0.1511
300.8525	0.148
301.0646	0.1527
301.2767	0.1511
301.4888	0.1404
301.7009	0.1512
301.913	0.1547
302.125	0.1536
302.3371	0.1536
302.5491	0.1486
302.7612	0.1554
302.9732	0.1582
303.1852	0.1479
303.3972	0.1528
303.6092	0.1467
303.8211	0.1495
304.0331	0.1412
304.245	0.1448
304.457	0.1496
304.6689	0.148
304.8808	0.1473
305.0927	0.1437
305.3046	0.1418
305.5164	0.1475
305.7283	0.1432
305.9401	0.1508
306.152	0.1431
306.3638	0.1488
306.5756	0.1421
306.7874	0.1409
306.9992	0.1437
307.2109	0.134
307.4227	0.1399
307.6344	0.1361
307.8462	0.1289
308.0579	0.1249
308.2696	0.129
308.4813	0.1339
308.693	0.1331
308.9046	0.1239
309.1163	0.1232
309.328	0.1214
309.5396	0.117
309.7512	0.1233
309.9628	0.1211
310.1744	0.1289
310.386	0.112
310.5976	0.119
310.8091	0.1155
311.0207	0.121
311.2322	0.1117
311.4437	0.1235
311.6552	0.1193
311.8667	0.1093
312.0782	0.11
312.2897	0.1041
312.5012	0.1073
312.7126	0.1005
312.924	0.0983
313.1355	0.1067
313.3469	0.1074
313.5583	0.1081
313.7696	0.1078
313.981	0.1023
314.1924	0.1025
314.4037	0.1081
314.6151	0.0988
314.8264	0.1056
315.0377	0.1033
315.249	0.1027
315.4603	0.1008
315.6716	0.1032
315.8828	0.1067
316.0941	0.0976
316.3053	0.104
316.5165	0.0932
316.7277	0.0961
316.9389	0.0973
317.1501	0.0934
317.3613	0.0979
317.5724	0.0947
317.7836	0.0981
317.9947	0.1073
318.2058	0.0957
318.417	0.0956
318.6281	0.0954
318.8391	0.1002
319.0502	0.0936
319.2613	0.0963
319.4723	0.1012
319.6834	0.1036
319.8944	0.0957
320.1054	0.0947
320.3164	0.1077
320.5274	0.1044
320.7383	0.095
320.9493	0.0944
321.1602	0.0974
321.3712	0.1068
321.5821	0.1034
321.793	0.0945
322.0039	0.102
322.2148	0.1065
322.4257	0.0947
322.6365	0.1022
322.8474	0.1061
323.0582	0.11
323.269	0.1013
323.4798	0.108
323.6906	0.1028
323.9014	0.1027
324.1122	0.099
324.3229	0.1089
324.5337	0.1019
324.7444	0.1038
324.9551	0.1047
325.1658	0.0956
325.3765	0.1066
325.5872	0.1095
325.7979	0.1078
326.0085	0.1099
326.2192	0.1044
326.4298	0.1129
326.6404	0.1049
326.851	0.1019
327.0616	0.1058
327.2722	0.105
327.4828	0.1003
327.6933	0.1039
327.9039	0.107
328.1144	0.1025
328.3249	0.1044
328.5354	0.1055
328.7459	0.1079
328.9564	0.1032
329.1669	0.1077
329.3773	0.1078
329.5878	0.1088
329.7982	0.11
330.0086	0.1123
330.219	0.1116
330.4294	0.1103
330.6398	0.1086
330.8502	0.1087
331.0605	0.1062
331.2708	0.1102
331.4812	0.1062
331.6915	0.1128
331.9018	0.1014
332.1121	0.113
332.3224	0.1123
332.5326	0.1005
332.7429	0.1155
332.9531	0.108
333.1633	0.1188
333.3735	0.1148
333.5837	0.1095
333.7939	0.1095
334.0041	0.1075
334.2143	0.1144
334.4244	0.113
334.6346	0.1055
334.8447	0.1124
335.0548	0.1138
335.2649	0.0973
335.475	0.1137
335.685	0.1134
335.8951	0.1156
336.1051	0.1088
336.3152	0.1139
336.5252	0.106
336.7352	0.1102
336.9452	0.1175
337.1552	0.1096
337.3652	0.1179
337.5751	0.1178
337.7851	0.1061
337.995	0.1177
338.2049	0.1079
338.4148	0.1222
338.6247	0.1124
338.8346	0.1156
339.0445	0.1205
339.2543	0.1202
339.4642	0.117
339.674	0.1164
339.8838	0.1112
340.0936	0.1166
340.3034	0.1304
340.5132	0.1147
340.7229	0.1291
340.9327	0.1163
341.1424	0.1193
341.3522	0.1194
341.5619	0.1299
341.7716	0.1334
341.9813	0.1247
342.1909	0.12
342.4006	0.1173
342.6102	0.1152
342.8199	0.1248
343.0295	0.1204
343.2391	0.131
343.4487	0.1223
343.6583	0.1231
343.8679	0.1292
344.0774	0.1399
344.287	0.1315
344.4965	0.1204
344.706	0.1301
344.9155	0.1314
345.125	0.1304
345.3345	0.1329
345.544	0.1219
345.7534	0.127
345.9629	0.1267
346.1723	0.1328
346.3817	0.1384
346.5911	0.1388
346.8005	0.1331
347.0099	0.1221
347.2193	0.1409
347.4286	0.1363
347.638	0.1404
347.8473	0.1326
348.0566	0.1375
348.2659	0.1241
348.4752	0.139
348.6845	0.1296
348.8937	0.1375
349.103	0.1449
349.3122	0.149
349.5214	0.1433
349.7306	0.1385
349.9398	0.1328
350.149	0.1417
350.3582	0.1364
350.5674	0.1413
350.7765	0.1337
350.9856	0.1375
351.1948	0.1455
351.4039	0.136
351.613	0.1364
351.822	0.1417
352.0311	0.1395
352.2402	0.1472
352.4492	0.1422
352.6582	0.1471
352.8672	0.1426
353.0762	0.1527
353.2852	0.1556
353.4942	0.153
353.7032	0.1417
353.9121	0.1562
354.1211	0.1474
354.33	0.144
354.5389	0.1478
354.7478	0.1544
354.9567	0.1512
355.1655	0.1523
355.3744	0.1581
355.5833	0.1433
355.7921	0.1472
356.0009	0.1456
356.2097	0.1599
356.4185	0.1537
356.6273	0.1548
356.8361	0.1489
357.0448	0.1638
357.2536	0.1534
357.4623	0.1517
357.671	0.1663
357.8797	0.164
358.0884	0.1551
358.2971	0.1629
358.5057	0.1679
358.7144	0.1583
358.923	0.1662
359.1316	0.1701
359.3402	0.1741
359.5488	0.1624
359.7574	0.1734
359.966	0.1635
360.1746	0.1668
360.3831	0.17
360.5916	0.1732
360.8002	0.1753
361.0087	0.1719
361.2172	0.1707
361.4256	0.1791
361.6341	0.1836
361.8426	0.1813
362.051	0.1705
362.2594	0.1815
362.4678	0.1833
362.6762	0.1815
362.8846	0.1761
363.093	0.1772
363.3014	0.1827
363.5097	0.1749
363.718	0.1926
363.9264	0.1801
364.1347	0.1945
364.343	0.1787
364.5513	0.187
364.7595	0.1823
364.9678	0.1827
365.176	0.1956
365.3842	0.1786
365.5925	0.1853
365.8007	0.1852
366.0089	0.204
366.217	0.1896
366.4252	0.2014
366.6333	0.1884
366.8415	0.1796
367.0496	0.1983
367.2577	0.1937
367.4658	0.1954
367.6739	0.1921
367.882	0.2067
368.09	0.1946
368.2981	0.2058
368.5061	0.1995
368.7141	0.1998
368.9221	0.1952
369.1301	0.2094
369.3381	0.201
369.5461	0.2047
369.754	0.2031
369.962	0.1941
370.1699	0.2043
370.3778	0.2061
370.5857	0.2046
370.7936	0.1917
371.0015	0.204
371.2093	0.1971
371.4172	0.2194
371.625	0.2047
371.8328	0.209
372.0406	0.2181
372.2484	0.2049
372.4562	0.2182
372.664	0.2128
372.8717	0.2097
373.0795	0.2041
373.2872	0.217
373.4949	0.1907
373.7026	0.207
373.9103	0.2024
374.118	0.2218
374.3256	0.2067
374.5333	0.2116
374.7409	0.2061
374.9485	0.216
375.1561	0.2103
375.3637	0.2116
375.5713	0.2189
375.7789	0.2179
375.9864	0.209
376.194	0.2142
376.4015	0.2208
376.609	0.2191
376.8165	0.2195
377.024	0.2117
377.2315	0.2208
377.4389	0.2141
377.6464	0.2076
377.8538	0.2205
378.0612	0.215
378.2686	0.2057
378.476	0.2156
378.6834	0.2181
378.8908	0.2209
379.0981	0.2331
379.3055	0.2245
379.5128	0.221
379.7201	0.2132
379.9274	0.2241
380.1347	0.2213
380.342	0.227
380.5492	0.2265
380.7565	0.2248
380.9637	0.2283
381.1709	0.2323
381.3781	0.217
381.5853	0.223
381.7925	0.2152
381.9997	0.2386
382.2068	0.2318
382.4139	0.2222
382.6211	0.2238
382.8282	0.2256
383.0353	0.2248
383.2424	0.2298
383.4494	0.2369
383.6565	0.2233
383.8635	0.2328
384.0706	0.2305
384.2776	0.2385
384.4846	0.2305
384.6916	0.2264
384.8986	0.2366
385.1055	0.2364
385.3125	0.232
385.5194	0.2347
385.7263	0.2334
385.9333	0.2412
386.1402	0.2346
386.347	0.24
386.5539	0.2303
386.7608	0.2353
386.9676	0.2337
387.1744	0.2337
387.3813	0.2218
387.5881	0.2292
387.7948	0.2321
388.0016	0.2331
388.2084	0.2342
388.4151	0.2248
388.6219	0.2283
388.8286	0.2289
389.0353	0.2225
389.242	0.2182
389.4487	0.2166
389.6553	0.2224
389.862	0.2136
390.0686	0.22
390.2753	0.2213
390.4819	0.2274
390.6885	0.2272
390.8951	0.2161
391.1016	0.233
391.3082	0.2193
391.5147	0.2191
391.7213	0.2114
391.9278	0.2163
392.1343	0.2121
392.3408	0.2026
392.5473	0.2228
392.7537	0.2104
392.9602	0.2062
393.1666	0.2096
393.373	0.2063
393.5794	0.2128
393.7858	0.2017
393.9922	0.1949
394.1986	0.2031
394.4049	0.2077
394.6113	0.1988
394.8176	0.1879
395.0239	0.1971
395.2302	0.2073
395.4365	0.201
395.6428	0.1968
395.8491	0.2007
396.0553	0.2
396.2615	0.1992
396.4678	0.1966
396.674	0.1991
396.8802	0.1958
397.0863	0.1977
397.2925	0.19
397.4987	0.1889
397.7048	0.1996
397.9109	0.1949
398.117	0.1972
398.3231	0.201
398.5292	0.1868
398.7353	0.196
398.9413	0.1976
399.1474	0.1898
399.3534	0.1875
399.5594	0.1945
399.7654	0.1919
399.9714	0.1905
400.1774	0.1951
400.3833	0.1915
400.5893	0.1813
400.7952	0.1736
401.0011	0.1824
401.207	0.1837
401.4129	0.1724
401.6188	0.186
401.8247	0.1846
402.0305	0.1899
402.2364	0.1858
402.4422	0.1911
402.648	0.1967
402.8538	0.1868
403.0596	0.1819
403.2654	0.182
403.4711	0.1856
403.6768	0.1929
403.8826	0.1886
404.0883	0.187
404.294	0.1876
404.4997	0.1935
404.7054	0.1814
404.911	0.1884
405.1167	0.1977
405.3223	0.1896
405.5279	0.1841
405.7335	0.1871
405.9391	0.1853
406.1447	0.1853
406.3502	0.1766
406.5558	0.1855
406.7613	0.1818
406.9668	0.1979
407.1724	0.1888
407.3778	0.1821
407.5833	0.1848
407.7888	0.2002
407.9942	0.185
408.1997	0.1959
408.4051	0.1835
408.6105	0.1847
408.8159	0.2043
409.0213	0.1859
409.2267	0.1856
409.432	0.1871
409.6374	0.1925
409.8427	0.1977
410.048	0.1786
410.2533	0.1784
410.4586	0.1893
410.6639	0.1716
410.8691	0.1868
411.0744	0.1774
411.2796	0.1818
411.4848	0.167
411.69	0.1933
411.8952	0.1819
412.1004	0.1795
412.3056	0.1872
412.5107	0.1731
412.7158	0.1916
412.921	0.1863
413.1261	0.17
413.3312	0.2038
413.5362	0.1824
413.7413	0.1862
413.9464	0.1925
414.1514	0.1705
414.3564	0.1822
414.5614	0.1898
414.7664	0.1832
414.9714	0.181
415.1764	0.1765
415.3813	0.189
415.5863	0.1793
415.7912	0.1782
415.9961	0.1848
416.201	0.1795
416.4059	0.182
416.6108	0.1783
416.8156	0.1732
417.0205	0.1749
417.2253	0.1826
417.4301	0.1789
417.6349	0.1756
417.8397	0.1894
418.0445	0.1849
418.2492	0.1726
418.454	0.1775
418.6587	0.1667
418.8634	0.172
419.0681	0.1754
419.2728	0.1754
419.4775	0.1765
419.6822	0.1714
419.8868	0.1549
420.0915	0.167
420.2961	0.1585
420.5007	0.1644
420.7053	0.1639
420.9099	0.1653
421.1144	0.1742
421.319	0.1619
421.5235	0.1709
421.728	0.1582
421.9325	0.1659
422.137	0.1494
422.3415	0.1723
422.546	0.1705
422.7504	0.1706
422.9549	0.1679
423.1593	0.1573
423.3637	0.1578
423.5681	0.1679
423.7725	0.1658
423.9769	0.1579
424.1812	0.1552
424.3856	0.1708
424.5899	0.1621
424.7942	0.1575
424.9985	0.1494
425.2028	0.1392
425.4071	0.149
425.6113	0.1511
425.8156	0.1518
426.0198	0.159
426.224	0.1355
426.4282	0.1383
426.6324	0.1504
426.8366	0.1537
427.0407	0.1422
427.2449	0.1549
427.449	0.1402
427.6531	0.149
427.8572	0.1385
428.0613	0.1387
428.2654	0.1332
428.4694	0.1403
428.6735	0.1354
428.8775	0.1322
429.0815	0.1381
429.2855	0.139
429.4895	0.1229
429.6935	0.1313
429.8975	0.1286
430.1014	0.1265
430.3053	0.1249
430.5093	0.1363
430.7132	0.1302
430.9171	0.1219
431.1209	0.1377
431.3248	0.1232
431.5286	0.1277
431.7325	0.1213
431.9363	0.1222
432.1401	0.1252
432.3439	0.1135
432.5477	0.1132
432.7514	0.1149
432.9552	0.1085
433.1589	0.1045
433.3627	0.1134
433.5664	0.1059
433.7701	0.1032
433.9737	0.1053
434.1774	0.0925
434.3811	0.1
434.5847	0.104
434.7883	0.0995
434.9919	0.0976
435.1955	0.0844
435.3991	0.1016
435.6027	0.0952
435.8062	0.0887
436.0098	0.094
436.2133	0.0859
436.4168	0.0957
436.6203	0.088
436.8238	0.0767
437.0272	0.0814
437.2307	0.0828
437.4341	0.0815
437.6375	0.0844
437.841	0.0757
438.0443	0.0759
438.2477	0.073
438.4511	0.0796
438.6545	0.0751
438.8578	0.0796
439.0611	0.069
439.2644	0.0834
439.4677	0.0717
439.671	0.0664
439.8743	0.0807
440.0775	0.0594
440.2808	0.0528
440.484	0.0615
440.6872	0.0643
440.8904	0.0586
441.0936	0.0593
441.2967	0.0547
441.4999	0.0621
441.703	0.0348
441.9062	0.0674
442.1093	0.0559
442.3124	0.0457
442.5155	0.0525
442.7185	0.0458
442.9216	0.053
443.1246	0.0501
443.3276	0.0564
443.5307	0.048
443.7337	0.0456
443.9366	0.05
444.1396	0.047
444.3426	0.0384
444.5455	0.0346
444.7484	0.0383
444.9513	0.0361
445.1542	0.0497
445.3571	0.0337
445.56	0.0356
445.7628	0.0315
445.9657	0.0417
446.1685	0.0302
446.3713	0.0323
446.5741	0.042
446.7769	0.0393
446.9797	0.0274
447.1824	0.0291
447.3852	0.0348
447.5879	0.0385
447.7906	0.0305
447.9933	0.0336
448.196	0.0373
448.3986	0.0248
448.6013	0.0265
448.8039	0.0216
449.0066	0.0331
449.2092	0.0203
449.4118	0.028
449.6143	0.0218
449.8169	0.014
450.0195	0.0252
450.222	0.0142
450.4245	0.0204
450.627	0.0123
450.8295	0.0201
451.032	0.0241
451.2345	0.0164
451.4369	0.0218
451.6394	0.0119
451.8418	0.0117
452.0442	0.0201
452.2466	0.0138
452.449	0.0193
452.6513	0.0202
452.8537	0.0174
453.056	0.0125
453.2583	0.0072
453.4607	0.0198
453.663	0.0214
453.8652	0.0075
454.0675	0.0092
454.2697	0.0192
454.472	0.0101
454.6742	0.0051
454.8764	0.0154
455.0786	0.0279
455.2808	0.0089
455.4829	0.007
455.6851	0.0057
455.8872	-0.0053
456.0893	0.0073
456.2915	0.0091
456.4935	0.0043
456.6956	-0.0002
456.8977	0.0117
457.0997	0.0055
457.3018	0.0063
457.5038	0.0032
457.7058	0
457.9078	0.0072
458.1098	0.0023
458.3117	-0.0002
458.5137	0.0089
458.7156	0.0046
458.9175	0.0085
459.1194	0.0089
459.3213	-0.0034
459.5232	-0.0016
459.725	-0.0101
459.9269	0.0081
460.1287	0.0063
460.3305	-0.0021
460.5323	0.0095
460.7341	0.0034
460.9359	-0.0033
461.1376	0.011
461.3394	-0.0038
461.5411	-0.0004
461.7428	0.0005
461.9445	-0.0006
462.1462	0.0023
462.3479	-0.0075
462.5495	0.0102
462.7512	-0.0031
462.9528	-0.0007
463.1544	0.0049
463.356	-0.0018
463.5576	-0.0063
463.7592	-0.0082
463.9607	-0.004
464.1623	0.0049
464.3638	0.0025
464.5653	0.0124
464.7668	-0
464.9683	0.0088
465.1697	0.0004
465.3712	0.0012
465.5726	-0.0072
465.7741	-0.0087
465.9755	-0.0141
466.1769	-0.0089
466.3782	-0.0079
466.5796	-0.0073
466.7809	-0.0041
466.9823	-0.0135
467.1836	0.0041
467.3849	0.004
467.5862	-0.006
467.7875	-0.0128
467.9887	-0.0003
468.19	-0.0099
468.3912	-0.0088
468.5924	0.0085
468.7936	-0.0094
468.9948	0.0054
469.196	-0.0079
469.3972	0.0051
469.5983	0.0073
469.7994	-0.0083
470.0006	-0.0048
470.2017	0.0023
470.4027	0.0013
470.6038	-0.0008
470.8049	-0.0086
471.0059	0.0063
471.2069	0.0026
471.408	-0.0053
471.6089	-0.0043
471.8099	-0.0079
472.0109	-0.0044
472.2119	-0.0175
472.4128	0.0024
472.6137	-0.0155
472.8146	-0.0113
473.0155	-0.0063
473.2164	-0.0216
473.4173	-0.0052
473.6181	-0.0009
473.819	-0.0152
474.0198	-0.0065
474.2206	-0.0018
474.4214	0.0015
474.6222	-0.0059
474.8229	-0.0118
475.0237	-0.0026
475.2244	0.0024
475.4251	-0.0058
475.6258	-0.0007
475.8265	-0.0111
476.0272	-0.0054
476.2278	0.001
476.4285	-0.0047
476.6291	-0.0085
476.8297	-0.0078
477.0303	-0.0048
477.2309	-0.0013
477.4315	0.0013
477.632	-0.0058
477.8326	-0.0046
478.0331	-0.0202
478.2336	0.0017
478.4341	-0.0159
478.6346	-0.0025
478.8351	-0.0062
479.0355	-0.0142
479.236	-0.0081
479.4364	-0.0011
479.6368	0
479.8372	-0.0071
480.0376	-0.0041
480.2379	-0.0016
480.4383	0.0005
480.6386	-0.0118
480.8389	-0.0064
481.0392	-0.0019
481.2395	-0.0119
481.4398	0.0021
481.6401	-0.0087
481.8403	-0.0097
482.0405	-0.0114
482.2408	0.0078
482.441	0.0035
482.6411	0.002
482.8413	-0.0058
483.0415	-0.007
483.2416	-0.0039
483.4417	-0.0108
483.6419	-0.004
483.8419	-0.0031
484.042	-0.0064
484.2421	-0.0036
484.4422	-0.0085
484.6422	-0.0166
484.8422	-0.007
485.0422	-0.0075
485.2422	-0.0031
485.4422	-0.0048
485.6422	-0.0029
485.8421	-0.0035
486.042	-0.0013
486.242	-0.0065
486.4419	-0.0017
486.6417	-0.0046
486.8416	-0.0096
487.0415	-0.0091
487.2413	-0.0061
487.4411	-0.0045
487.641	-0.0083
487.8408	-0.0029
488.0405	-0.0132
488.2403	-0.0116
488.4401	-0.0094
488.6398	-0.0069
488.8395	-0.0101
489.0392	-0.0045
489.2389	-0.0104
489.4386	-0.0074
489.6383	-0.0073
489.8379	-0.0067
490.0376	-0.0051
490.2372	-0.005
490.4368	-0.0091
490.6364	-0.009
490.836	-0.0072
491.0355	-0.0049
491.2351	-0.0041
491.4346	-0.0075
491.6341	-0.0052
491.8336	-0.0092
492.0331	-0.0067
492.2326	-0.0129
492.432	-0.0009
492.6315	-0.0085
492.8309	-0.0056
493.0303	-0.007
493.2297	-0.0076
493.4291	-0.0054
493.6284	-0.0014
493.8278	-0.0029
494.0271	-0.002
494.2264	-0.0032
494.4257	-0.0047
494.625	0.0019
494.8243	-0.0055
495.0236	-0.0141
495.2228	-0.0038
495.422	-0.0053
495.6213	-0.0126
495.8205	0.0005
496.0196	-0.0079
496.2188	-0.0062
496.418	-0.0024
496.6171	-0.0071
496.8162	-0.0035
497.0153	-0.004
497.2144	0
497.4135	-0.0011
497.6126	-0.0051
497.8116	0.0099
498.0107	-0.0041
498.2097	-0.0092
498.4087	-0.0018
498.6077	-0.0109
498.8067	-0.0058
499.0056	-0.0065
499.2046	-0.0012
499.4035	-0.0088
499.6024	-0.0078
499.8013	-0.0024
500.0002	-0.0042
500.199	-0.0035
500.3979	-0.0021
500.5967	-0.0093
500.7956	-0.0075
500.9944	-0.0105
501.1932	-0.0016
501.3919	-0.0142
501.5907	-0.0074
501.7895	0.004
501.9882	-0.0142
502.1869	-0.0044
502.3856	-0.0036
502.5843	-0.0084
502.783	-0.0048
502.9816	-0.0105
503.1803	0.0002
503.3789	-0.0033
503.5775	-0.0024
503.7761	-0.0068
503.9747	-0.0082
504.1732	-0.0044
504.3718	-0.0036
504.5703	0.0008
504.7689	0.0004
504.9674	-0.0064
505.1658	-0.0028
505.3643	0.0019
505.5628	0.0002
505.7612	-0.0065
505.9597	-0.0081
506.1581	0.0008
506.3565	-0.0014
506.5549	-0.0019
506.7532	-0.01
506.9516	0.0003
507.1499	-0.0061
507.3482	-0.0043
507.5465	-0.0026
507.7448	-0.0058
507.9431	-0.0049
508.1414	-0.0022
508.3396	-0.0069
508.5379	-0.0055
508.7361	0.005
508.9343	-0.0058
509.1325	-0.0094
509.3306	0.0013
509.5288	-0.0045
509.7269	-0.0148
509.9251	-0.0065
510.1232	-0.004
510.3213	-0.0093
510.5193	-0.0055
510.7174	-0.0055
510.9154	-0.0026
511.1135	-0.0108
511.3115	-0.0069
511.5095	-0.0061
511.7075	-0.0015
511.9055	-0.0068
512.1034	-0.0082
512.3014	-0.003
512.4993	-0.0039
512.6972	-0.0079
512.8951	-0.0054
513.093	-0.007
513.2908	0.0016
513.4887	-0.0085
513.6865	-0.009
513.8844	-0.0007
514.0822	-0.0005
514.2799	-0.0071
514.4777	-0.0024
514.6755	-0.0005
514.8732	-0.0104
515.0709	-0.0071
515.2687	-0.0028
515.4664	-0.002
515.664	-0.0099
515.8617	-0.0085
516.0594	-0.0071
516.257	-0.0005
516.4546	-0.013
516.6522	-0.0088
516.8498	-0.0141
517.0474	0.0055
517.2449	-0.0117
517.4425	-0.0034
517.64	-0.0058
517.8375	-0.0087
518.035	-0.0008
518.2325	-0.0066
518.43	-0.003
518.6274	-0.0059
518.8249	-0.006
519.0223	-0.0098
519.2197	-0.0077
519.4171	-0.0051
519.6145	-0.0072
519.8118	-0.0136
520.0092	0
520.2065	-0.0105
520.4038	-0.0032
520.6011	-0.0075
520.7984	-0.0114
520.9956	-0.0142
521.1929	-0.0071
521.3901	-0.0069
521.5874	-0.007
521.7846	-0.0013
521.9818	-0.0034
522.1789	-0.0053
522.3761	-0.0107
522.5732	-0.0038
522.7704	-0.0106
522.9675	-0.0026
523.1646	-0.0012
523.3617	-0.0001
523.5587	-0.0072
523.7558	-0.004
523.9528	-0.0027
524.1498	-0.0084
524.3468	-0.0054
524.5438	-0.003
524.7408	-0.0117
524.9378	-0.0029
525.1347	0.0058
525.3316	-0.0004
525.5285	-0.0007
525.7254	-0.0087
525.9223	-0.0009
526.1192	-0.0025
526.316	-0.0029
526.5129	-0.005
526.7097	-0.012
526.9065	-0.0017
527.1033	0.0016
527.3	-0.0044
527.4968	-0.017
527.6935	-0.0049
527.8903	-0.007
528.087	-0.0079
528.2837	-0.0033
528.4804	-0.0073
528.677	-0.0069
528.8737	-0.0075
529.0703	0.0009
529.2669	-0.0005
529.4635	-0.0061
529.6601	-0.0006
529.8567	-0.0046
530.0532	-0.0039
530.2498	-0.009
530.4463	-0.0094
530.6428	0.0033
530.8393	0.003
531.0358	-0.0137
531.2322	-0.0052
531.4287	-0.0114
531.6251	-0.0071
531.8215	-0.0018
532.0179	-0.0061
532.2143	0.0004
532.4107	-0.0044
532.607	-0.0069
532.8034	-0.0071
532.9997	-0.0021
533.196	-0.0079
533.3923	0
533.5886	-0.0044
533.7848	0.0021
533.9811	-0.0022
534.1773	-0.0011
534.3735	0.0046
534.5697	-0.0016
534.7659	0.0036
534.9621	-0.0046
535.1582	-0.0095
535.3544	-0.0044
535.5505	-0.0001
535.7466	-0.0045
535.9427	-0.004
536.1387	-0.0005
536.3348	-0.0002
536.5308	-0.0049
536.7269	0.0002
536.9229	-0.0006
537.1189	-0.0066
537.3148	0.0041
537.5108	0.0062
537.7068	-0.0042
537.9027	-0.0059
538.0986	0.0044
538.2945	-0.0026
538.4904	-0.0126
538.6863	-0.0031
538.8821	-0.0012
539.078	-0.0102
539.2738	-0.0117
539.4696	-0.0062
539.6654	-0.0015
539.8611	-0.0054
540.0569	-0.0069
540.2526	-0.0098
540.4484	0.0065
540.6441	-0.0029
540.8398	-0.0042
541.0355	-0.0032
541.2311	-0.0065
541.4268	-0.0001
541.6224	0.0001
541.818	-0.001
542.0136	-0.0065
542.2092	-0.0046
542.4048	-0.0095
542.6003	-0.0049
542.7959	-0.0001
542.9914	-0.0105
543.1869	-0.0071
543.3824	-0.0033
543.5779	-0.0116
543.7734	-0.0134
543.9688	-0.0129
544.1642	-0.0035
544.3596	-0.0027
544.555	-0.006
544.7504	-0.0012
544.9458	-0.006
545.1411	0.0099
545.3365	-0.004
545.5318	0.0038
545.7271	0.0075
545.9224	0.0021
546.1177	-0.0087
546.3129	0.0022
546.5081	-0.0014
546.7034	-0.0031
546.8986	-0.0078
547.0938	-0.008
547.289	-0.0058
547.4841	-0.0083
547.6793	-0.0063
547.8744	-0
548.0695	-0.0101
548.2646	-0.0029
548.4597	0.001
548.6548	-0.0052
548.8498	-0.0049
549.0448	-0.0016
549.2399	-0.0058
549.4349	-0.0056
549.6298	-0.0093
549.8248	-0.0017
550.0198	-0.0028
550.2147	-0
550.4096	-0.01
550.6045	-0.007
550.7994	0.0029
550.9943	0.0004
551.1892	-0.0094
551.384	-0.0061
551.5788	-0.0083
551.7737	-0.0072
551.9685	-0.0073
552.1632	-0.0039
552.358	-0.0084
552.5528	-0.0043
552.7475	-0.007
552.9422	-0.007
553.1369	-0.0064
553.3316	-0.0007
553.5263	-0.0097
553.7209	-0.0069
553.9156	-0.0047
554.1102	-0.0116
554.3048	-0.0116
554.4994	-0.0055
554.694	0.0016
554.8885	-0.0061
555.0831	-0.0051
555.2776	-0.0061
555.4721	-0.0121
555.6666	-0.0085
555.8611	-0.0026
556.0555	-0.0078
556.25	-0.0051
556.4444	-0.0066
556.6388	-0.0083
556.8332	-0.0073
557.0276	-0.004
557.222	-0.0068
557.4163	0.0007
557.6107	-0.0082
557.805	-0.0049
557.9993	-0.002
558.1936	-0.0058
558.3879	0.0037
558.5821	-0.0054
558.7764	-0.0115
558.9706	-0.0036
559.1648	-0.004
559.359	-0.0097
559.5532	-0.0054
559.7473	-0.0101
559.9415	-0.0099
560.1356	0.0005
560.3297	-0.0114
560.5238	-0.0064
560.7179	-0.0036
560.9119	0.0002
561.106	-0
561.3	-0.0028
561.494	-0.0043
561.688	-0.003
561.882	-0.0026
562.076	-0.007
562.2699	-0.0005
562.4639	-0.0039
562.6578	-0.0014
562.8517	-0.0021
563.0456	-0.0036
563.2395	-0.0022
563.4333	-0.0017
563.6272	-0.0031
563.821	-0.0086
564.0148	0.0038
564.2086	-0.0064
564.4024	-0.005
564.5961	-0.0002
564.7899	0.0039
564.9836	0.0042
565.1773	-0.0087
565.371	-0.0011
565.5647	-0.003
565.7584	0.0024
565.952	0.003
566.1456	-0.0051
566.3393	-0.0025
566.5329	-0.0004
566.7264	0.0006
566.92	0.0022
567.1136	-0.0034
567.3071	0.0034
567.5006	-0.0009
567.6941	-0.001
567.8876	-0.0079
568.0811	-0.0085
568.2745	-0.009
568.468	-0.0082
568.6614	-0.0094
568.8548	-0.0117
569.0482	-0.006
569.2416	-0.0014
569.4349	-0.0049
569.6283	-0.0066
569.8216	-0.0059
570.0149	-0.0046
570.2082	-0.0004
570.4015	-0.0039
570.5947	-0.0031
570.788	-0.003
570.9812	-0.0003
571.1744	-0.01
571.3676	-0.0057
571.5608	-0.0024
571.754	-0.006
571.9471	-0.0041
572.1402	0.0007
572.3333	-0.0026
572.5264	0.0003
572.7195	-0.0006
572.9126	-0.0026
573.1057	-0.0064
573.2987	0.0021
573.4917	-0.0089
573.6847	-0.0047
573.8777	-0.005
574.0707	-0.0053
574.2636	-0.0062
574.4566	-0.0041
574.6495	-0.0046
574.8424	-0.0037
575.0353	-0.0044
575.2281	-0.0014
575.421	-0.0052
575.6138	-0.0049
575.8067	-0.0044
575.9995	-0.0009
576.1923	-0.0038
576.385	-0.0034
576.5778	-0.0015
576.7706	-0.0007
576.9633	-0.0047
577.156	0.0009
577.3487	-0.0009
577.5414	-0.0007
577.734	0.0023
577.9267	0.0002
578.1193	-0.0084
578.3119	-0.0013
578.5045	-0.0074
578.6971	-0.003
578.8897	-0.0069
579.0822	-0.0048
579.2747	0.003
579.4673	-0.0056
579.6598	-0.0031
579.8522	-0.0033
580.0447	-0.0033
580.2372	-0.0002
580.4296	0.0048
580.622	0.0022
580.8144	-0.004
581.0068	-0.0049
581.1992	0.0021
581.3915	-0.0046
581.5839	-0.0039
581.7762	-0.0059
581.9685	-0.0034
582.1608	-0.005
582.353	0.0037
582.5453	-0.0019
582.7375	0.0006
582.9298	-0.0026
583.122	0.0054
583.3142	-0.0036
583.5063	0.0001
583.6985	-0.0061
583.8906	-0.0041
584.0827	-0.0056
584.2749	-0.0042
584.4669	-0.0076
584.659	-0.0104
584.8511	-0.0066
585.0431	-0.0055
585.2352	-0.0048
585.4272	-0.0089
585.6192	-0.005
585.8111	-0.0054
586.0031	-0.0022
586.195	-0.0088
586.387	0.0008
586.5789	-0.0053
586.7708	-0.0065
586.9627	-0.0022
587.1545	-0.0054
587.3464	-0.0042
587.5382	-0.0037
587.73	-0.0048
587.9218	-0.0012
588.1136	0.0011
588.3053	-0.0022
588.4971	-0.0065
588.6888	-0.0058
588.8805	-0.0037
589.0722	-0.0021
589.2639	-0.0019
589.4556	-0.0045
589.6472	-0.0021
589.8389	-0.0007
590.0305	-0.0084
590.2221	-0.0028
590.4137	-0.0051
590.6052	-0.0003
590.7968	-0.0026
590.9883	-0.0065
591.1798	-0.0097
591.3713	-0.0028
591.5628	-0.0074
591.7543	-0.0003
591.9458	-0.001
592.1372	-0.003
592.3286	0.0005
592.52	-0.0016
592.7114	0.0028
592.9028	-0.0072
593.0941	-0.0022
593.2855	-0.0004
593.4768	0.001
593.6681	0.0012
593.8594	0
594.0506	-0.0023
594.2419	-0.0012
594.4331	-0.0019
594.6244	-0.0063
594.8156	-0.0071
595.0067	-0.0036
595.1979	-0.0028
595.3891	-0.0051
595.5802	-0.0091
595.7713	-0.0058
595.9624	0.0022
596.1535	0.0014
596.3446	-0.0016
596.5357	0.0008
596.7267	-0.003
596.9177	0.0011
597.1087	-0.0013
597.2997	-0.0008
597.4907	-0.0019
597.6817	-0.0067
597.8726	-0.0078
598.0635	-0.005
598.2544	-0.0032
598.4453	-0.0046
598.6362	-0.0055
598.827	-0.0046
599.0179	-0.0024
599.2087	-0.0086
599.3995	-0.0072
599.5903	-0.006
599.7811	-0.0068
599.9718	0.0019
600.1626	-0.0007
600.3533	-0.0057
600.544	-0.0066
600.7347	-0.0011
600.9254	-0.0043
601.116	-0.0073
601.3067	-0.0061
601.4973	-0.0044
601.6879	0.0008
601.8785	-0.0034
602.0691	-0.0014
602.2596	-0.0055
602.4502	-0.0062
602.6407	-0.0015
602.8312	-0.003
603.0217	-0.0032
603.2122	-0.0018
603.4027	-0.0019
603.5931	-0.004
603.7835	0.0011
603.9739	-0.0043
604.1643	-0.0035
604.3547	-0.0038
604.5451	0.0008
604.7354	-0.0025
604.9257	-0.0061
605.116	-0.0039
605.3063	-0.0018
605.4966	-0.0016
605.6869	0.0001
605.8771	-0.0029
606.0673	-0.0036
606.2575	-0.0067
606.4477	-0.0037
606.6379	-0.0082
606.8281	-0.0033
607.0182	-0.0045
607.2083	-0.0065
607.3985	-0.006
607.5885	0.0002
607.7786	-0.0056
607.9687	-0.0046
608.1587	-0.0079
608.3488	-0.0034
608.5388	0.0018
608.7288	-0.0108
608.9187	0.0014
609.1087	-0.0045
609.2986	-0.0021
609.4886	-0.0062
609.6785	-0.0062
609.8684	-0.0029
610.0582	-0.0032
610.2481	-0.005
610.4379	0.0002
610.6278	0.0034
610.8176	-0.0001
611.0074	-0.0043
611.1971	-0.0034
611.3869	-0.001
611.5766	-0
611.7664	-0.0004
611.9561	-0.0033
612.1458	0.0014
612.3354	-0.0047
612.5251	-0.0034
612.7147	-0.0019
612.9044	-0.0029
613.094	-0.0008
613.2836	-0.0045
613.4731	-0.0081
613.6627	-0.0046
613.8522	0.0011
614.0417	-0.0074
614.2313	-0.0037
614.4207	-0.0047
614.6102	0.0009
614.7997	-0.0058
614.9891	-0.0052
615.1785	-0.0054
615.3679	0.0027
615.5573	0.0014
615.7467	-0.0007
615.9361	-0.0028
616.1254	-0.0052
616.3147	-0.0052
616.504	0
616.6933	-0.0034
616.8826	-0.0087
617.0718	-0.0063
617.2611	-0.0024
617.4503	0.0021
617.6395	-0.0039
617.8287	0.0037
618.0179	0.0019
618.207	-0.0054
618.3961	0.0007
618.5853	-0.003
618.7744	-0.0055
618.9634	0.0017
619.1525	-0.0057
619.3416	-0.0052
619.5306	-0.0026
619.7196	0.0014
619.9086	-0.0001
620.0976	-0.0014
620.2866	0.0031
620.4755	-0.0009
620.6645	-0
620.8534	-0.0007
621.0423	-0.0103
621.2312	-0.0108
621.42	0.0017
621.6089	-0.0081
621.7977	0.0005
621.9865	-0.0012
622.1753	-0.0019
622.3641	-0.0004
622.5529	0.0009
622.7416	-0.0027
622.9303	0.0044
623.1191	-0.0014
623.3078	-0.0005
623.4964	-0.0002
623.6851	0.0001
623.8737	-0.0011
624.0624	-0.0032
624.251	0.003
624.4396	-0.0003
624.6282	-0.0015
624.8167	-0.0005
625.0053	0.0009
625.1938	0.0042
625.3823	0.003
625.5708	0.0016
625.7593	-0.004
625.9477	-0.01
626.1362	-0.0033
626.3246	-0.0062
626.513	-0.0087
626.7014	-0.0056
626.8898	-0.0041
627.0781	-0.003
627.2665	-0.0001
627.4548	-0.0105
627.6431	-0.0018
627.8314	-0.001
628.0197	-0.0031
628.2079	0.0011
628.3962	0.0002
628.5844	-0.0005
628.7726	-0.0024
628.9608	0.0024
629.1489	0.0061
629.3371	-0.0007
629.5252	0.0047
629.7134	-0.001
629.9015	-0.0029
630.0895	-0.0055
630.2776	0.0028
630.4657	-0.0003
630.6537	-0.0059
630.8417	0.0002
631.0297	-0.003
631.2177	0.0005
631.4057	0.0029
631.5936	0.0033
631.7815	-0.0036
631.9695	-0.0008
632.1574	-0.0056
632.3452	-0.0051
632.5331	-0.0051
632.7209	-0.0026
632.9088	-0.0045
633.0966	-0.0029
633.2844	-0.0006
633.4722	-0.0025
633.6599	-0.0064
633.8477	-0.0053
634.0354	-0.0081
634.2231	-0.005
634.4108	-0.0032
634.5985	-0.0001
634.7861	-0.0046
634.9738	-0.0073
635.1614	-0.0037
635.349	-0.0034
635.5366	0.0024
635.7242	-0.0005
635.9117	0.0009
636.0993	-0.0001
636.2868	-0.001
636.4743	-0.0045
636.6618	-0.0125
636.8492	-0.0043
637.0367	-0.0064
637.2241	0.0005
637.4115	-0.0024
637.5989	-0.0004
637.7863	0.0001
637.9737	-0.0033
638.161	-0.005
638.3484	-0.0028
638.5357	-0.0019
638.723	-0.0036
638.9103	-0.0002
639.0975	0.0005
639.2848	-0.0044
639.472	0.0021
639.6592	0.0052
639.8464	0.0024
640.0336	-0.0051
640.2208	-0.0006
640.4079	-0.0068
640.595	0.0001
640.7821	-0.0011
640.9692	-0.0026
641.1563	0.0045
641.3434	0.0027
641.5304	-0.001
641.7174	0.0019
641.9044	0.002
642.0914	-0.0007
642.2784	0.0032
642.4653	0.0091
642.6523	0.0002
642.8392	0.0055
643.0261	0.0041
643.213	0.0027
643.3999	-0.0025
643.5867	-0
643.7735	-0.0001
643.9604	-0.0029
644.1472	-0.0044
644.3339	0.0015
644.5207	-0.0027
644.7075	-0.0086
644.8942	-0.0049
645.0809	-0.0032
645.2676	-0.0067
645.4543	0.0019
645.6409	0.0006
645.8276	-0.0002
646.0142	-0.0032
646.2008	-0.004
646.3874	-0.0014
646.574	-0.0083
646.7605	-0.0029
646.9471	-0.0099
647.1336	-0.0039
647.3201	-0.0058
647.5066	0
647.6931	0.0006
647.8795	-0.0057
648.0659	-0.0023
648.2524	-0.0058
648.4388	-0.0048
648.6252	-0.0047
648.8115	-0.0093
648.9979	-0.0049
649.1842	-0.0083
649.3705	-0.0047
649.5568	-0.0015
649.7431	-0.0028
649.9294	-0.0032
650.1156	-0.0029
650.3018	-0.0034
650.488	-0.0107
650.6742	-0.0063
650.8604	-0.0016
651.0466	-0.0029
651.2327	0.0021
651.4188	-0.0018
651.6049	-0.0003
651.791	-0.0023
651.9771	-0.0008
652.1632	0.0025
652.3492	0.0043
652.5352	-0.0013
652.7212	0.0001
652.9072	0.0061
653.0932	0.0002
653.2791	-0.0047
653.465	-0.003
653.651	-0.0033
653.8369	-0.0016
654.0227	0.0002
654.2086	0.0012
654.3944	-0.0033
654.5803	-0.0073
654.7661	-0.0025
654.9519	-0.0025
655.1377	-0.0034
655.3234	-0.0001
655.5092	-0.0001
655.6949	-0.0001
655.8806	-0.0001
656.0663	-0.0001
656.2519	-0.0001
656.4376	-0.0048
656.6232	-0.0032
656.8088	-0.0014
656.9945	-0.0028
657.18	0.0042
657.3656	-0.0028
657.5511	-0.0049
657.7367	-0.0024
657.9222	-0.0031
658.1077	-0.0027
658.2932	-0.0029
658.4786	0.0002
658.6641	-0.0029
658.8495	-0.0027
659.0349	-0.0079
659.2203	-0.006
659.4057	-0.0058
659.591	-0.0045
659.7764	-0.0075
659.9617	-0.0031
660.147	-0.0029
660.3323	-0.0044
660.5176	-0.0059
660.7028	-0.0033
660.888	-0.0048
661.0733	-0.0023
661.2585	-0.0071
661.4436	-0.0026
661.6288	-0.0061
661.8139	0.0015
661.9991	-0.0017
662.1842	0.0012
662.3693	-0
662.5544	-0.0005
662.7394	-0.0007
662.9245	-0.0001
663.1095	0.0018
663.2945	-0.0013
663.4795	-0.0026
663.6644	-0.0047
663.8494	-0.0057
664.0343	-0.0037
664.2193	-0.0077
664.4042	-0.0101
664.589	-0.003
664.7739	-0.0042
664.9587	0.0033
665.1436	-0.0029
665.3284	-0.0035
665.5132	-0.0075
665.698	0.006
665.8827	-0.0006
666.0675	-0.0084
666.2522	-0.0084
666.4369	-0.009
666.6216	-0.0127
666.8063	-0.0033
666.9909	-0.0071
667.1756	-0.0049
667.3602	-0.0102
667.5448	-0.0134
667.7294	-0.004
667.9139	-0.0043
668.0985	-0.0096
668.283	-0.0048
668.4675	-0.0119
668.652	-0.0091
668.8365	-0.009
669.0209	-0.0099
669.2054	-0.0044
669.3898	-0.002
669.5742	-0.0057
669.7586	-0.0054
669.943	-0.0084
670.1273	-0.011
670.3117	-0.0053
670.496	-0.0062
670.6803	0.0037
670.8646	-0.0053
671.0488	-0.0017
671.2331	-0.0049
671.4173	-0.0032
671.6015	-0.0024
671.7857	-0.0055
671.9699	-0.003
672.1541	-0.0027
672.3382	-0.0075
672.5223	-0.0086
672.7064	-0.0077
672.8905	-0.0095
673.0746	-0.011
673.2587	-0.0137
673.4427	-0.0116
673.6267	-0.0109
673.8107	-0.0121
673.9947	-0.0086
674.1787	-0.0094
674.3626	-0.0093
674.5465	-0.005
674.7304	0.0023
674.9143	-0.0059
675.0982	-0.0053
675.2821	-0.0039
675.4659	-0.0067
675.6497	0.0031
675.8335	-0.0016
676.0173	-0.0108
676.2011	-0.0061
676.3849	-0.0018
676.5686	-0.004
676.7523	-0.0064
676.936	0.0014
677.1197	-0.0054
677.3034	-0.0067
677.487	-0.005
677.6706	-0.0067
677.8542	-0.0019
678.0378	-0.0046
678.2214	-0.0095
678.405	-0.0015
678.5885	-0.0097
678.772	-0.0086
678.9555	-0.0045
679.139	-0.0064
679.3225	-0.0073
679.5059	-0.0053
679.6894	-0.0016
679.8728	-0.0044
680.0562	0.0004
680.2395	-0.0038
680.4229	-0.0028
680.6062	0.0003
680.7896	0.0019
680.9729	-0.0041
681.1562	-0.0014
681.3394	-0.0034
681.5227	-0.0044
681.7059	-0.0017
681.8891	-0.0103
682.0723	-0.004
682.2555	-0.0032
682.4387	0.004
682.6218	-0.0057
682.805	-0.0026
682.9881	-0.0039
683.1712	0.0052
683.3542	-0.0002
683.5373	-0.0051
683.7203	-0.0072
683.9034	-0.0033
684.0864	-0.0087
684.2694	-0.0031
684.4523	-0.0037
684.6353	-0.0014
684.8182	-0.0023
685.0011	-0.0052
685.184	-0.0044
685.3669	-0.0042
685.5498	-0.001
685.7326	0.0009
685.9154	-0.0051
686.0982	-0.004
686.281	-0.0073
686.4638	0.0005
686.6465	-0.0036
686.8293	-0.0063
687.012	-0.0027
687.1947	-0.004
687.3774	-0.0032
687.56	-0.0058
687.7427	-0.0047
687.9253	-0.0008
688.1079	-0.002
688.2905	-0.0031
688.4731	-0.0036
688.6556	-0.0059
688.8382	0.0008
689.0207	-0.0029
689.2032	0.0019
689.3857	0.0017
689.5681	0.0016
689.7506	-0.001
689.933	0.0002
690.1154	-0.0005
690.2978	-0.0002
690.4802	-0.0011
690.6626	0.0021
690.8449	0.004
691.0272	0.0026
691.2095	0.001
691.3918	-0.001
691.5741	-0.0061
691.7563	-0.001
691.9386	-0.0087
692.1208	-0.0062
692.303	-0.0029
692.4852	-0.0042
692.6673	-0.0036
692.8495	-0.0065
693.0316	-0.0046
693.2137	-0.0042
693.3958	-0.005
693.5778	-0.0056
693.7599	-0.0104
693.9419	-0.0043
694.1239	-0.0049
694.3059	-0.0098
694.4879	-0.0087
694.6699	-0.0101
694.8518	-0.0041
695.0337	-0.0075
695.2157	-0.0035
695.3975	-0.0098
695.5794	-0.0069
695.7613	-0.0105
695.9431	-0.0098
696.1249	-0.0089
696.3067	-0.008
696.4885	-0.0043
696.6703	-0.0024
696.852	-0.0046
697.0337	-0.0026
697.2154	-0.0002
697.3971	-0.008
697.5788	-0.0039
697.7605	-0.004
697.9421	-0.0028
698.1237	-0.0069
698.3053	-0.008
698.4869	-0.0002
698.6685	-0.0033
698.85	-0.0074
699.0315	-0.0079
699.213	-0.0007
699.3945	-0.0012
699.576	0.0066
699.7575	0.0011
699.9389	-0.0014
700.1203	-0.009
700.3017	-0.0052
700.4831	-0.0045
700.6645	-0.0093
700.8458	-0.0048
701.0271	-0.0048
701.2084	-0.0114
701.3897	-0.005
701.571	-0.003
701.7523	0.0023
701.9335	0.0056
702.1147	0.0067
702.2959	-0.0032
702.4771	-0.0018
702.6583	0.0026
702.8394	0.0024
703.0205	-0.0025
703.2016	-0.0024
703.3827	0.0048
703.5638	-0.0105
703.7449	-0.0071
703.9259	-0.005
704.1069	-0.0021
704.2879	-0.0083
704.4689	-0.0029
704.6499	-0.004
704.8308	0.0006
705.0117	0.0009
705.1927	0.0006
705.3735	0.0028
705.5544	0.0008
705.7353	0
705.9161	-0.0022
706.0969	0.0023
706.2777	-0.0032
706.4585	-0.0023
706.6393	-0.0058
706.82	-0.011
707.0007	-0.0046
707.1815	-0.0046
707.3621	-0.0014
707.5428	-0.0017
707.7235	-0.0014
707.9041	-0.0014
708.0847	-0.003
708.2653	-0.0081
708.4459	-0.009
708.6265	-0.0031
708.807	0.0004
708.9875	-0.0036
709.168	-0.0072
709.3485	-0.0034
709.529	-0.0054
709.7095	-0.0067
709.8899	-0.0135
710.0703	-0.0031
710.2507	-0.0028
710.4311	-0.0008
710.6115	0.0047
710.7918	-0.0021
710.9721	-0.0025
711.1524	0.0018
711.3327	-0.0044
711.513	-0.0014
711.6932	-0.0075
711.8735	0.0041
712.0537	-0.0014
712.2339	-0.0046
712.4141	-0.0089
712.5942	0.0045
712.7744	0.0008
712.9545	0.0027
713.1346	-0.0052
713.3147	0.001
713.4947	0.001
713.6748	-0.0037
713.8548	-0.0065
714.0348	-0.0065
714.2148	-0.0048
714.3948	-0.0066
714.5748	-0.0117
714.7547	-0.0071
714.9346	-0.0047
715.1145	-0.0034
715.2944	-0.0008
715.4743	-0.0026
715.6541	-0.0036
715.834	-0.001
716.0138	-0.0021
716.1936	0.0009
716.3733	-0.0062
716.5531	-0.009
716.7328	-0.006
716.9126	-0.0018
717.0923	-0.002
717.2719	-0.0072
717.4516	-0.0035
717.6312	0.0046
717.8109	0.0003
717.9905	-0.0083
718.1701	0.0039
718.3496	-0.0018
718.5292	-0.0035
718.7087	-0.0071
718.8882	-0.0039
719.0677	-0.0033
719.2472	-0.0049
719.4267	-0.0111
719.6061	-0.0107
719.7856	-0.0004
719.965	-0.0109
720.1443	-0.0051
720.3237	-0.0058
720.5031	-0.008
720.6824	-0.0009
720.8617	-0.0071
721.041	-0.0017
721.2203	-0.0084
721.3995	-0.0058
721.5788	-0.01
721.758	-0.0051
721.9372	-0.0064
722.1164	-0.0041
722.2956	-0.0068
722.4747	-0.0052
722.6538	-0.0025
722.8329	-0.0062
723.012	-0.0065
723.1911	0.0002
723.3702	0.0037
723.5492	-0.0069
723.7282	-0
723.9072	-0.0027
724.0862	0.0001
724.2652	-0.0018
724.4441	-0.0049
724.623	0.0062
724.8019	-0.0036
724.9808	-0.0038
725.1597	-0.0012
725.3385	0.0047
725.5174	0.0007
725.6962	-0.008
725.875	0.0014
726.0538	0.0009
726.2325	-0.0035
726.4112	-0.0007
726.59	-0.0071
726.7687	-0.0012
726.9474	-0.0047
727.126	0.0005
727.3047	-0.0017
727.4833	-0.002
727.6619	-0.0113
727.8405	-0.0024
728.0191	-0.0011
728.1976	-0.0061
728.3762	-0.0088
728.5547	-0.0104
728.7332	-0.0021
728.9116	-0.0119
729.0901	-0.0154
729.2686	-0.0056
729.447	-0.0078
729.6254	-0.0051
729.8038	-0.009
729.9821	0.0032
730.1605	-0.0055
730.3388	0.0018
730.5171	-0.0023
730.6954	-0.0001
730.8737	-0.0016
731.0519	0.0001
731.2302	0.0007
731.4084	0.0054
731.5866	0.0001
731.7648	0.0076
731.9429	0.0037
732.1211	0.005
732.2992	-0.0049
732.4773	-0.0013
732.6554	-0.01
732.8335	-0.0067
733.0115	-0.0083
733.1896	-0.0065
733.3676	-0.0086
733.5456	-0.002
733.7235	0.0008
733.9015	-0.0021
734.0794	0.0021
734.2574	0.0025
734.4353	-0.0044
734.6131	-0.0006
734.791	-0.0019
734.9689	-0.0065
735.1467	0.0036
735.3245	0.0011
735.5023	0.0011
735.68	0.0001
735.8578	0.0031
736.0355	0.0071
736.2132	-0.001
736.3909	-0.0028
736.5686	-0.0052
736.7463	-0.0011
736.9239	-0.0024
737.1015	-0.0065
737.2791	-0.0094
737.4567	-0.0061
737.6343	-0.0047
737.8118	-0.0102
737.9894	-0.0002
738.1669	-0.0061
738.3444	-0.0051
738.5218	0.0024
738.6993	0.0004
738.8767	-0.0056
739.0541	-0.003
739.2315	0.0003
739.4089	-0.0031
739.5863	-0.005
739.7636	-0.0013
739.9409	-0.0005
740.1182	-0.0012
740.2955	0.0005
740.4728	-0.0034
740.65	-0.0058
740.8272	0.0025
741.0044	-0.0026
741.1816	-0.0019
741.3588	0.0035
741.5359	0.002
741.7131	0.0028
741.8902	-0.0024
742.0673	0.004
742.2444	-0.0039
742.4214	-0.0012
742.5985	-0.0026
742.7755	-0.0033
742.9525	0.004
743.1295	-0.0006
743.3064	-0.007
743.4834	-0.0046
743.6603	-0.0067
743.8372	0.0031
744.0141	-0.0043
744.191	-0.0052
744.3678	-0.0058
744.5446	0.0025
744.7215	-0.006
744.8982	0.0005
745.075	-0.0016
745.2518	-0.001
745.4285	-0.0049
745.6052	-0.0015
745.7819	0.0017
745.9586	0.0028
746.1353	-0.0035
746.3119	0.0006
746.4885	-0.0071
746.6651	-0.0061
746.8417	-0.0041
747.0183	-0.0092
747.1948	-0.0049
747.3714	-0.0023
747.5479	-0.0018
747.7244	-0.0043
747.9008	0.0036
748.0773	0.0075
748.2537	0.0045
748.4301	0.0038
748.6065	0.0009
748.7829	0.0082
748.9593	0.0049
749.1356	-0.0027
749.3119	-0.0009
749.4882	0.003
749.6645	-0.0062
749.8408	-0.0065
750.017	-0.0035
750.1933	-0.0033
750.3695	-0.0015
750.5457	-0.0081
750.7218	-0.011
750.898	-0.0103
751.0741	-0.0066
751.2502	-0.0054
751.4263	-0.0059
751.6024	-0.0056
751.7784	0.0036
751.9545	0.0044
752.1305	-0.003
752.3065	-0.0042
752.4825	-0.0066
752.6584	-0.0026
752.8344	-0.0026
753.0103	-0.0042
753.1862	-0.0004
753.3621	-0.0024
753.5379	-0.0073
753.7138	0.0038
753.8896	-0.0131
754.0654	-0.0069
754.2412	-0.0166
754.417	-0.0088
754.5927	-0.0036
754.7685	-0.0156
754.9442	-0.0086
755.1199	-0.0103
755.2956	-0.0072
755.4712	-0.0095
755.6469	-0.0141
755.8225	-0.0088
755.9981	-0.0096
756.1736	-0.0077
756.3492	-0.0077
756.5248	0.0016
756.7003	-0.0084
756.8758	-0.0092
757.0513	-0.0108
757.2267	-0.0117
757.4022	-0.013
757.5776	-0.0161
757.753	-0.0139
757.9284	-0.0121
758.1038	-0.0077
758.2791	-0.0145
758.4545	-0.0173
758.6298	-0.0037
758.8051	-0.0119
758.9803	-0.0142
759.1556	-0.0102
759.3308	-0.0087
759.506	-0.0083
759.6812	-0.0076
759.8564	-0.0059
760.0316	-0.0087
760.2067	-0.0055
760.3819	-0.005
760.557	-0.0117
760.732	-0.0079
760.9071	-0.0125
761.0821	-0.0124
761.2572	-0.0094
761.4322	-0.0103
761.6072	-0.0185
761.7821	-0.0127
761.9571	-0.0119
762.132	-0.0013
762.3069	-0.001
762.4818	0.0004
762.6567	-0.0114
762.8316	-0.0001
763.0064	-0.0006
763.1812	0.0008
763.356	-0.0015
763.5308	0.0022
763.7055	0.0038
763.8803	-0.0039
764.055	0
764.2297	0.002
764.4044	-0.0026
764.579	0.0033
764.7537	-0.0056
764.9283	-0.0056
765.1029	0.0003
765.2775	0.0047
765.4521	0.0058
765.6266	0.007
765.8011	0.004
765.9756	0.0017
766.1501	0.0061
766.3246	-0.0088
766.4991	-0.004
766.6735	-0.0048
766.8479	-0.0109
767.0223	0.004
767.1967	0.0011
767.371	-0.0026
767.5454	0.0014
767.7197	-0.0055
767.894	-0.0028
768.0683	-0.0017
768.2425	-0.008
768.4168	-0.0058
768.591	-0.0019
768.7652	-0.0048
768.9394	0.0058
769.1135	0.0055
769.2877	-0.0049
769.4618	-0.0005
769.6359	0.0027
769.81	-0.0029
769.984	-0.0126
770.1581	0.0051
770.3321	0.0026
770.5061	0.0012
770.6801	0.0045
770.8541	0.0036
771.028	0.0012
771.202	0.0111
771.3759	-0.0045
771.5498	0.0022
771.7236	0.002
771.8975	-0.0008
772.0713	-0.0016
772.2451	0.0051
772.4189	0.0013
772.5927	-0.0073
772.7665	-0.0072
772.9402	0.0019
773.1139	-0.0069
773.2876	-0.0022
773.4613	-0.0016
773.635	0.0019
773.8086	-0.0004
773.9822	0.0002
774.1558	-0.0057
774.3294	0.0022
774.503	0.0015
774.6765	-0.0088
774.8501	0.0046
775.0236	-0.0201
775.1971	-0.0074
775.3705	0.0029
775.544	-0.0008
775.7174	0
775.8908	-0.0096
776.0642	0.0034
776.2376	-0.0014
776.4109	-0.0087
776.5843	0.0036
776.7576	0.0036
776.9309	0.0001
777.1041	0
777.2774	-0.0001
777.4506	-0.0013
777.6238	-0.0001
777.797	0.0004
777.9702	0.0029
778.1434	-0.0051
778.3165	0.0091
778.4896	-0.0119
778.6627	-0.005
778.8358	-0.0039
779.0089	-0.0039
779.1819	-0.0034
779.3549	-0.0069
779.5279	-0.0018
779.7009	-0.0065
779.8739	-0.0025
780.0468	-0.0102
780.2197	-0.0062
780.3926	-0.0011
780.5655	-0.0083
780.7384	-0.0038
780.9112	-0.0021
781.0841	-0.0024
781.2569	0.0029
781.4297	-0.0042
781.6024	0.0011
781.7752	-0.0098
781.9479	-0.0018
782.1206	0.0068
782.2933	-0.0003
782.466	-0.0073
782.6386	-0.0028
782.8113	-0.0073
782.9839	-0.003
783.1565	-0.0092
783.329	-0.002
783.5016	-0.0056
783.6741	-0.0019
783.8466	-0.0115
784.0191	-0.0064
784.1916	-0.0032
784.3641	-0.0044
784.5365	-0.0027
784.7089	0.001
784.8813	0.0035
785.0537	0.0104
785.2261	-0.0029
785.3984	0.0026
785.5707	0.0021
785.743	0.0034
785.9153	0.001
786.0876	0.0052
786.2598	0.0074
786.432	0.001
786.6042	0.0069
786.7764	-0.0028
786.9486	-0.0059
787.1207	-0.007
787.2928	-0.0034
787.4649	-0.0042
787.637	-0.0048
787.8091	0.0009
787.9811	0.001
788.1532	0.0102
788.3252	-0.0066
788.4972	-0.0039
788.6691	-0.0061
788.8411	0.0089
789.013	-0.0015
789.1849	-0.0015
789.3568	-0.0103
789.5287	-0.0069
789.7005	0.0025
789.8723	0.0022
790.0442	-0.0085
790.2159	0.0025
790.3877	-0.0113
790.5595	-0.0057
790.7312	0.0022
790.9029	-0.0074
791.0746	-0.0037
791.2463	0.0004
791.4179	-0.0127
791.5896	0.0005
791.7612	-0.0035
791.9328	0.0043
792.1044	-0.0097
792.2759	0.0078
792.4474	0.0001
792.619	-0.0067
792.7905	-0.0137
792.9619	-0.0134
793.1334	-0.0083
793.3048	-0.0102
793.4762	-0.0035
793.6476	-0.0159
793.819	-0.0077
793.9904	-0.0111
794.1617	-0.0164
794.333	-0.0181
794.5043	-0.0069
794.6756	-0.002
794.8469	-0.0029
795.0181	-0.004
795.1893	-0.0116
795.3605	-0.0065
795.5317	-0.0047
795.7029	-0.0111
795.874	-0.0055
796.0452	-0.0078
796.2163	-0.0106
796.3873	-0.0068
796.5584	-0.0063
796.7294	-0.0088
796.9005	-0.0061
797.0715	-0.0049
797.2425	-0.0129
797.4134	-0.0113
797.5844	-0.0131
797.7553	-0.0221
797.9262	-0.0057
798.0971	-0.0158
798.2679	-0.0126
798.4388	-0.0093
798.6096	-0.0072
798.7804	-0.0193
798.9512	-0.0105
799.122	-0.0026
799.2927	-0.0155
799.4635	0.0019
799.6342	-0.0103
799.8049	-0.0107
799.9755	-0.0124
800.1462	-0.025
800.3168	-0.0099
800.4874	-0.0082
800.658	-0.0228
800.8286	-0.016
800.9991	-0.0145
801.1696	-0.0132
801.3402	-0.013
801.5106	-0.0268
801.6811	-0.0163
801.8516	-0.0049
802.022	-0.0258
802.1924	-0.0257
802.3628	-0.0256
802.5332	-0.0149
802.7035	-0.0157
802.8739	-0.0189
803.0442	-0.0182
803.2145	-0.0144
803.3847	-0.0253
803.555	-0.02
803.7252	-0.0213
803.8954	-0.0154
804.0656	-0.0115
804.2358	-0.0145
804.4059	-0.0127
804.5761	-0.013
804.7462	-0.0055
804.9163	-0.0136
805.0864	-0.0138
805.2564	-0.0104
805.4264	-0.0187
805.5965	-0.0154
805.7665	-0.0079
805.9364	-0.0066
806.1064	-0.0099
806.2763	-0.0163
806.4462	-0.0077
806.6161	-0.0144
806.786	-0.014
806.9559	-0.0078
807.1257	-0.0107
807.2955	-0.014
807.4653	-0.0125
807.6351	-0.0106
807.8048	0.0067
807.9746	-0.0107
808.1443	0.0025
808.314	-0.0065
808.4837	0.001
808.6533	-0.0105
808.8229	-0.0088
808.9926	0.0028
809.1622	0.0004
809.3317	0.0123
809.5013	0.0053
809.6708	-0.0017
809.8403	-0.0106
810.0098	0.0098
810.1793	-0.019
810.3488	0.0072
810.5182	-0.0068
810.6876	-0.0044
810.857	-0.0123
811.0264	-0.0068
811.1958	-0.0025
811.3651	-0.0153
811.5344	-0.001
811.7037	-0.0086
811.873	-0.006
812.0422	-0.0084
812.2115	-0.0106
812.3807	-0.0045
812.5499	0.0012
812.7191	-0.0103
812.8882	-0.0088
813.0574	-0.0072
813.2265	0.0053
813.3956	0.0047
813.5646	-0.0194
813.7337	-0.0032
813.9027	0.0044
814.0718	-0.0055
814.2407	0.0053
814.4097	-0.0014
814.5787	-0.0018
814.7476	-0.005
814.9165	0.0025
815.0854	-0.0066
815.2543	0.014
815.4232	-0.0074
815.592	-0.0003
815.7608	-0.003
815.9296	0.0102
816.0984	-0.0099
816.2671	-0.0038
816.4359	0.0003
816.6046	-0.0074
816.7733	0.0015
816.942	0.0056
817.1106	0.0026
817.2793	-0.0103
817.4479	-0.0153
817.6165	-0.0098
817.785	-0.0202
817.9536	-0.0154
818.1221	-0.0103
818.2906	-0.0008
818.4591	-0.0219
818.6276	-0.0043
818.7961	-0.0109
818.9645	-0.0125
819.1329	0.0006
819.3013	-0.0043
819.4697	0.0041
819.638	-0.0186
819.8064	-0.0065
819.9747	0.007
820.143	-0.0053
820.3113	-0.0065
820.4795	0.0123
820.6477	-0.0018
820.816	0.0009
820.9842	0.0021
821.1523	-0.0099
821.3205	-0.0125
821.4886	-0.0127
821.6567	-0.0081
821.8248	-0.0163
821.9929	-0.0066
822.1609	-0.0041
822.329	-0.0134
822.497	-0.0047
822.665	-0.0155
822.833	-0.0234
823.0009	-0.0108
823.1688	-0.0099
823.3367	-0.0027
823.5046	-0.0015
823.6725	-0.0313
823.8404	-0.0065
824.0082	-0.0097
824.176	-0.002
824.3438	-0.0045
824.5116	-0.0077
824.6793	-0.0085
824.847	-0.0005
825.0147	-0.0063
825.1824	-0.0263
825.3501	-0.0103
825.5177	-0.0207
825.6854	0.0093
825.853	-0.017
826.0206	0.0037
826.1881	-0.0031
826.3557	-0.0037
826.5232	-0.0027
826.6907	-0.0012
826.8582	-0.0068
827.0257	-0.0124
827.1931	0.0012
827.3605	0.0045
827.528	0.0099
827.6953	0.0059
827.8627	-0.0042
828.03	-0.0092
828.1974	-0.0144
828.3647	0.0139
828.532	-0.0047
828.6992	-0.0122
828.8665	-0.0298
829.0337	-0.0097
829.2009	-0.006
829.3681	-0.0173
829.5352	0.0008
829.7024	-0.0198
829.8695	-0.0213
830.0366	-0.0226
830.2037	-0.014
830.3707	-0.0116
830.5378	0.0001
830.7048	-0.0115
830.8718	-0.0102
831.0388	-0.0082
831.2057	-0.0273
831.3727	-0.01
831.5396	-0.0117
831.7065	-0.0011
831.8734	0.0048
832.0402	-0.0155
832.2071	0.0007
832.3739	-0.0069
832.5407	-0.0118
832.7075	-0.0184
832.8742	0.0111
833.041	0.0174
833.2077	-0.0244
833.3744	-0.0069
833.541	0.0067
833.7077	-0.0083
833.8743	-0.0072
834.0409	0.0122
834.2075	-0.0035
834.3741	-0.0168
834.5407	0.0084
834.7072	-0.0107
834.8737	-0.0127
835.0402	-0.0331
835.2067	-0.0279
835.3731	0.0004
835.5395	-0.0038
835.706	-0.0435
835.8723	-0.0135
836.0387	-0.0253
836.2051	-0.0087
836.3714	0.0154
836.5377	-0.0013
836.704	-0.0102
836.8703	-0.0196
837.0365	-0.0135
837.2027	-0.0006
837.3689	0.0001
837.5351	-0.0004
837.7013	-0.0221
837.8674	0.0095
838.0335	-0.0152
838.1997	-0.0112
838.3657	-0.0004
838.5318	-0.0173
838.6978	-0.0171
838.8639	0.0084
839.0299	-0.0175
839.1958	0.0144
839.3618	0.0211
839.5277	-0.0361
839.6937	-0.034
839.8596	-0.0015
840.0254	0.0189
840.1913	-0.0164
840.3571	0.0076
840.523	-0.0111
840.6888	0.0116
840.8545	0.0011
841.0203	-0.0054
841.186	-0.0064
841.3517	-0.0038
841.5174	-0.0153
841.6831	-0.0081
841.8488	0.0198
842.0144	0.017
842.18	0.003
842.3456	0.0091
842.5112	0.0121
842.6767	-0.0192
842.8422	0.0197
843.0077	-0.0123
843.1732	-0.0122
843.3387	-0.0177
843.5042	-0.0094
843.6696	0.0074
843.835	-0.0124
844.0004	0.0012
844.1657	-0.0124
844.3311	-0.0036
844.4964	-0.0101
844.6617	-0.0063
844.827	0.0246
844.9923	0.0162
845.1575	0.0009
845.3227	-0.0215
845.4879	0.001
845.6531	-0.0087
845.8183	-0.0214
845.9834	-0.0096
846.1485	0.0006
846.3136	-0.0482
846.4787	-0.0169
846.6438	-0.0236
846.8088	0.0047
846.9738	-0.0006
847.1388	-0.0006
847.3038	0.011
847.4687	-0.0074
847.6337	0.0216
847.7986	0.0356
847.9635	0.0129
848.1284	-0.0203
848.2932	-0.0155
848.458	0.0162
848.6228	0.0073
848.7876	-0.0602
848.9524	0.0323
849.1172	-0.0238
849.2819	0.0042
849.4466	-0.0244
849.6113	-0.0196
849.7759	0.0084
849.9406	-0.0034
850.1052	0.0101
850.2698	0.0061
850.4344	0.0317
850.599	-0.0436
850.7635	0.0304
850.928	0.0153
851.0925	0.0256
851.257	-0.0142
851.4215	-0.0074
851.5859	0.0272
851.7503	-0.048
851.9147	-0.0088
852.0791	0.0164
852.2434	-0.016
852.4078	0.0236
852.5721	-0.0365
852.7364	-0.0628
852.9007	0.014
853.0649	-0.0164
853.2291	-0.0302
853.3934	-0.0498
853.5575	-0.0249
853.7217	-0.0431
853.8859	-0.0201
854.05	-0.0065
854.2141	-0.0196
854.3782	-0.0038
854.5423	-0.0326
854.7063	-0.0299
854.8703	-0.002
855.0343	0.0144
855.1983	0.0215
855.3623	0.0063
855.5262	0.0022
855.6901	-0.0349
855.854	-0.0011
856.0179	0.1023
856.1818	0.0184
856.3456	-0.0396
856.5094	0.0058
856.6732	-0.0088
856.837	0.0094
857.0008	0.0241
857.1645	-0.0527
857.3282	-0.01
857.4919	-0.0551
857.6556	0.0482
857.8192	-0.0048
857.9828	-0.0186
858.1465	0.0399
858.31	-0.0437
858.4736	-0.1088
858.6372	-0.0248
858.8007	-0.0509
858.9642	-0.0915
859.1277	0.0306
859.2911	-0.0044
859.4546	0.0461
859.618	-0.0135
859.7814	-0.0538
859.9448	-0.0592
860.1081	-0.0867
860.2715	0.0035
860.4348	-0.0368
860.5981	0.0375
860.7614	-0.1209
860.9246	-0.0625
861.0879	0.0534
861.2511	-0.0363
861.4143	-0.0991
861.5774	-0.1498
861.7406	0.0011
861.9037	-0.2693
862.0668	-0.048
862.2299	0.003
862.393	0.0075
862.556	0.0846
862.7191	-0.1096
862.8821	-0.0547
863.0451	-0.0301
863.208	-0.1263
863.371	0.1015
863.5339	0.0145
863.6968	-0.065
863.8597	0.0424
864.0225	-0.2612
864.1854	-0.0237
864.3482	-0.0146
864.511	-0.1514
864.6737	0.0055
864.8365	-0.0347
864.9992	-0.0885
865.1619	-0.1141
865.3246	-0.1897
865.4873	0.052
865.65	-0.0563
865.8126	-0.0043
865.9752	-0.0257
866.1378	-0.0945
866.3004	0.0938
866.4629	-0.1706
866.6254	-0.0609
866.7879	-0.2325
866.9504	-0.1404
867.1129	-0.0271
867.2753	0.066
867.4377	-0.0596
867.6001	-0.1061
867.7625	0.1174
867.9249	-0.134
868.0872	-0.046
868.2495	-0.1467
868.4118	-0.073
868.5741	-0.0188
868.7363	0.1892
868.8986	0.0758
869.0608	-0.0642
869.223	-0.1542
869.3851	-0.0816
869.5473	-0.339
869.7094	-0.1448
869.8715	-0.1631
870.0336	-0.2335
870.1957	-0.1417
870.3577	0.3594
870.5197	-0.3341
870.6817	-0.0771
870.8437	-0.2175
871.0057	-0.1817
871.1676	-0.2557
871.3295	-0.3788
871.4914	0.0251
871.6533	0.2774
871.8151	-0.0633
871.977	0.0948
872.1388	-0.0756
872.3006	-0.2393
872.4623	-0.1333
872.6241	-0.088
872.7858	0.1008
872.9475	-0.1852
873.1092	-0.0831
873.2709	-0.2848
873.4325	0.2286
873.5941	-0.2134
873.7557	0.0099
873.9173	0.1499
874.0789	0.0061
874.2404	-0.1081
874.4019	-0.3753
874.5634	-0.1507
874.7249	-0.0694
874.8863	-0.2373
875.0478	-0
875.2092	-0.2756
875.3706	0.1789
875.5319	-0.2412
875.6933	0.0272
875.8546	-0.4171
876.0159	0.0867
876.1772	-0.3473
876.3385	-0.8163
876.4997	0.348
876.6609	-0.36
876.8221	0.0721
876.9833	-0.1737
877.1445	-0.1183
877.3056	0.3697
877.4667	-1.1298
877.6278	0.183
877.7889	-0.146
877.9499	-0.0147
878.111	-0.1725
878.272	-0.2646
878.433	0.1201
878.5939	-0.0243
878.7549	0.0201
878.9158	-0.0834
879.0767	0.1627
879.2376	0.0065
879.3984	-0.1567
879.5593	-0.5134
879.7201	-0
879.8809	0.1964
880.0417	-0.1059
880.2024	-0.0434
880.3632	-0.3641
880.5239	-0
880.6846	-0.2257
880.8452	0.0037
881.0059	-0.3843
881.1665	-0
881.3271	-0.3511
881.4877	-0.1953
881.6483	-0
881.8088	0.9041
881.9693	0.2632
882.1298	0.2632
882.2903	0.2632
