Data from MonoPyChalIsomerACN10uM450nmA_Absorbance_13-11-12-513.txt Node
Date: Tue Jul 09 13:11:12 BST 2024
User: LASERRRRR
Spectrometer: FLMT03099
Trigger mode: 0
Integration Time (sec): 2.000000E-1
Scans to average: 1
Electric dark correction enabled: true
Nonlinearity correction enabled: false
Boxcar width: 0
XAxis mode: Wavelengths
Number of Pixels in Spectrum: 3648
>>>>>Begin Spectral Data<<<<<
179.3399	-0.0713
179.5586	-0.0713
179.7771	-0.0713
179.9957	-0
180.2143	-0
180.4329	0.1625
180.6514	0.1566
180.8699	-0
181.0885	-0
181.307	-0
181.5255	0.5613
181.744	-0
181.9625	0.4789
182.181	0.9985
182.3994	-0.2653
182.6179	-0.198
182.8363	-0
183.0547	0.0145
183.2732	0.1405
183.4916	-0.0351
183.71	0.0392
183.9284	-0.0281
184.1467	0.0733
184.3651	0.1267
184.5835	0.0957
184.8018	-0.0238
185.0201	0.0934
185.2385	0.0548
185.4568	-0.0455
185.6751	0.1996
185.8934	-0.0377
186.1117	-0.0008
186.3299	-0.1144
186.5482	-0.0437
186.7664	0.0371
186.9847	0.0067
187.2029	0.1988
187.4211	-0.0523
187.6393	-0.0558
187.8575	0.1348
188.0757	0.0802
188.2939	0.0359
188.512	0.0542
188.7302	0.1175
188.9483	0.0553
189.1665	0.1277
189.3846	0.1338
189.6027	0.1246
189.8208	0.1478
190.0389	0.1577
190.257	0.1836
190.475	0.3342
190.6931	0.1175
190.9111	0.2454
191.1292	0.2323
191.3472	0.2352
191.5652	0.3485
191.7832	0.2885
192.0012	0.3986
192.2192	0.5088
192.4371	0.4688
192.6551	0.4804
192.873	0.3408
193.091	0.5331
193.3089	0.5825
193.5268	0.5232
193.7447	0.5048
193.9626	0.5298
194.1805	0.5992
194.3984	0.643
194.6162	0.5147
194.8341	0.566
195.0519	0.5197
195.2697	0.699
195.4875	0.6508
195.7054	0.6403
195.9231	0.5811
196.1409	0.6033
196.3587	0.6529
196.5765	0.6468
196.7942	0.8452
197.012	0.5731
197.2297	0.7256
197.4474	0.8372
197.6651	0.6849
197.8828	0.7915
198.1005	0.726
198.3182	0.7005
198.5358	0.7333
198.7535	0.7602
198.9711	0.8885
199.1888	0.7041
199.4064	0.8106
199.624	0.6996
199.8416	0.7864
200.0592	0.7451
200.2767	0.7717
200.4943	0.8179
200.7119	0.8407
200.9294	0.8424
201.1469	0.8428
201.3645	0.7881
201.582	0.8205
201.7995	0.732
202.017	0.8749
202.2344	0.809
202.4519	0.8507
202.6694	0.7703
202.8868	0.9023
203.1042	0.9358
203.3217	1.0714
203.5391	0.9372
203.7565	0.8667
203.9739	0.8373
204.1913	0.7559
204.4086	1.0133
204.626	0.9702
204.8433	0.8552
205.0607	0.9722
205.278	0.8778
205.4953	1.0205
205.7126	1.0119
205.9299	1.0976
206.1472	1.0012
206.3644	0.9455
206.5817	1.061
206.7989	1.0486
207.0162	1.0366
207.2334	0.8913
207.4506	0.8944
207.6678	0.9802
207.885	1.1608
208.1022	0.9856
208.3194	1.0756
208.5365	1.0278
208.7537	0.9586
208.9708	1.0032
209.1879	1.0259
209.405	0.9945
209.6222	1.0043
209.8392	1.0426
210.0563	1.0655
210.2734	1.0046
210.4905	1.127
210.7075	1.0887
210.9245	0.9715
211.1416	1.0563
211.3586	1.0813
211.5756	1.0944
211.7926	1.0618
212.0096	1.0998
212.2265	1.1063
212.4435	1.1051
212.6604	1.0231
212.8774	1.013
213.0943	0.9703
213.3112	0.9553
213.5281	1.0877
213.745	0.986
213.9619	0.959
214.1788	0.9889
214.3956	0.9393
214.6125	0.9265
214.8293	0.8178
215.0461	0.9297
215.2629	0.9244
215.4798	0.8801
215.6965	0.8624
215.9133	0.7942
216.1301	0.7659
216.3469	0.787
216.5636	0.804
216.7803	0.7811
216.9971	0.7557
217.2138	0.7308
217.4305	0.7201
217.6472	0.6721
217.8639	0.6745
218.0805	0.6308
218.2972	0.5946
218.5138	0.5335
218.7305	0.517
218.9471	0.495
219.1637	0.4507
219.3803	0.4188
219.5969	0.406
219.8135	0.3791
220.0301	0.3778
220.2466	0.3741
220.4632	0.3341
220.6797	0.3096
220.8962	0.3211
221.1127	0.3168
221.3292	0.3094
221.5457	0.2891
221.7622	0.2918
221.9787	0.2739
222.1951	0.2782
222.4116	0.2786
222.628	0.2824
222.8444	0.2752
223.0608	0.275
223.2772	0.2697
223.4936	0.2631
223.71	0.271
223.9264	0.287
224.1427	0.262
224.3591	0.2818
224.5754	0.2717
224.7917	0.2735
225.008	0.2734
225.2243	0.2722
225.4406	0.2768
225.6569	0.2792
225.8732	0.2958
226.0894	0.2798
226.3057	0.2923
226.5219	0.2977
226.7381	0.2987
226.9543	0.2887
227.1705	0.2901
227.3867	0.31
227.6029	0.2912
227.8191	0.3133
228.0352	0.3176
228.2513	0.3195
228.4675	0.3021
228.6836	0.3365
228.8997	0.3168
229.1158	0.3065
229.3319	0.3239
229.548	0.326
229.764	0.3209
229.9801	0.3374
230.1961	0.3469
230.4121	0.3368
230.6282	0.3378
230.8442	0.339
231.0602	0.3423
231.2761	0.3502
231.4921	0.3582
231.7081	0.3606
231.924	0.3619
232.14	0.3674
232.3559	0.3674
232.5718	0.3577
232.7877	0.3541
233.0036	0.3725
233.2195	0.3695
233.4353	0.3683
233.6512	0.3716
233.867	0.3724
234.0829	0.3805
234.2987	0.3812
234.5145	0.3726
234.7303	0.3817
234.9461	0.3941
235.1619	0.398
235.3776	0.3854
235.5934	0.4029
235.8091	0.4002
236.0249	0.3888
236.2406	0.3949
236.4563	0.3914
236.672	0.3957
236.8877	0.4073
237.1034	0.4045
237.319	0.4182
237.5347	0.4066
237.7503	0.4149
237.966	0.4226
238.1816	0.4193
238.3972	0.4244
238.6128	0.4207
238.8284	0.4077
239.0439	0.4098
239.2595	0.4149
239.475	0.4148
239.6906	0.4258
239.9061	0.4077
240.1216	0.4144
240.3371	0.4182
240.5526	0.419
240.7681	0.4069
240.9836	0.408
241.199	0.4131
241.4145	0.4007
241.6299	0.4014
241.8453	0.3931
242.0607	0.3837
242.2761	0.3917
242.4915	0.3823
242.7069	0.3728
242.9223	0.369
243.1376	0.3573
243.353	0.3473
243.5683	0.3549
243.7836	0.3406
243.9989	0.3312
244.2142	0.3168
244.4295	0.3275
244.6448	0.3189
244.86	0.316
245.0753	0.2959
245.2905	0.2888
245.5057	0.3026
245.721	0.2889
245.9362	0.2733
246.1514	0.2758
246.3665	0.2879
246.5817	0.2685
246.7969	0.2663
247.012	0.2645
247.2271	0.2561
247.4423	0.2548
247.6574	0.2543
247.8725	0.2517
248.0876	0.248
248.3026	0.2389
248.5177	0.2445
248.7328	0.2312
248.9478	0.2277
249.1628	0.2333
249.3779	0.2221
249.5929	0.2233
249.8079	0.2289
250.0228	0.2234
250.2378	0.2271
250.4528	0.2124
250.6677	0.217
250.8827	0.2071
251.0976	0.213
251.3125	0.2176
251.5274	0.2049
251.7423	0.2026
251.9572	0.2028
252.172	0.2041
252.3869	0.2006
252.6017	0.2024
252.8166	0.207
253.0314	0.2032
253.2462	0.2063
253.461	0.1998
253.6758	0.1969
253.8906	0.1993
254.1053	0.1995
254.3201	0.2
254.5348	0.2005
254.7496	0.2021
254.9643	0.1979
255.179	0.1951
255.3937	0.2018
255.6083	0.1957
255.823	0.1932
256.0377	0.1872
256.2523	0.1951
256.467	0.1946
256.6816	0.1894
256.8962	0.1951
257.1108	0.1957
257.3254	0.1925
257.54	0.1964
257.7545	0.2001
257.9691	0.192
258.1836	0.1951
258.3981	0.1931
258.6127	0.2003
258.8272	0.1975
259.0417	0.1953
259.2561	0.2008
259.4706	0.1935
259.6851	0.1934
259.8995	0.194
260.114	0.1931
260.3284	0.2005
260.5428	0.2034
260.7572	0.1965
260.9716	0.1955
261.186	0.2047
261.4003	0.2011
261.6147	0.1968
261.829	0.2024
262.0433	0.1984
262.2577	0.1937
262.472	0.2023
262.6863	0.1842
262.9005	0.1998
263.1148	0.1948
263.3291	0.1826
263.5433	0.1892
263.7576	0.1842
263.9718	0.1866
264.186	0.1776
264.4002	0.1887
264.6144	0.1875
264.8286	0.181
265.0427	0.1763
265.2569	0.1839
265.471	0.1723
265.6851	0.1783
265.8993	0.17
266.1134	0.1712
266.3275	0.1812
266.5415	0.1708
266.7556	0.1777
266.9697	0.1789
267.1837	0.1748
267.3978	0.182
267.6118	0.19
267.8258	0.1763
268.0398	0.1886
268.2538	0.1809
268.4677	0.1837
268.6817	0.1875
268.8957	0.1838
269.1096	0.1794
269.3235	0.1764
269.5374	0.169
269.7514	0.1619
269.9652	0.1603
270.1791	0.1548
270.393	0.1482
270.6068	0.1371
270.8207	0.1367
271.0345	0.15
271.2483	0.1466
271.4622	0.1451
271.676	0.1449
271.8897	0.1312
272.1035	0.1345
272.3173	0.1394
272.531	0.1381
272.7448	0.1401
272.9585	0.1294
273.1722	0.1272
273.3859	0.1357
273.5996	0.1325
273.8133	0.1295
274.0269	0.1341
274.2406	0.1289
274.4542	0.1304
274.6679	0.1293
274.8815	0.1331
275.0951	0.1342
275.3087	0.1297
275.5223	0.1266
275.7358	0.1323
275.9494	0.1338
276.1629	0.1442
276.3765	0.13
276.59	0.1424
276.8035	0.1384
277.017	0.1346
277.2305	0.1341
277.444	0.1272
277.6574	0.1357
277.8709	0.1377
278.0843	0.1358
278.2978	0.1272
278.5112	0.1397
278.7246	0.1322
278.938	0.1396
279.1513	0.1403
279.3647	0.1414
279.5781	0.1336
279.7914	0.14
280.0047	0.1472
280.2181	0.137
280.4314	0.1385
280.6447	0.1367
280.8579	0.1425
281.0712	0.1353
281.2845	0.1383
281.4977	0.1453
281.711	0.145
281.9242	0.1395
282.1374	0.1425
282.3506	0.14
282.5638	0.1491
282.7769	0.1462
282.9901	0.1391
283.2033	0.147
283.4164	0.143
283.6295	0.1558
283.8426	0.1539
284.0557	0.1499
284.2688	0.1485
284.4819	0.1449
284.695	0.1495
284.908	0.1586
285.1211	0.1615
285.3341	0.1521
285.5471	0.1565
285.7601	0.1518
285.9731	0.1551
286.1861	0.1603
286.3991	0.1584
286.612	0.1562
286.825	0.1638
287.0379	0.1594
287.2508	0.1513
287.4637	0.1612
287.6766	0.1535
287.8895	0.1562
288.1024	0.1625
288.3152	0.1585
288.5281	0.1561
288.7409	0.1579
288.9538	0.1592
289.1666	0.1678
289.3794	0.1645
289.5922	0.1647
289.8049	0.1578
290.0177	0.1695
290.2304	0.1614
290.4432	0.1577
290.6559	0.1677
290.8686	0.1617
291.0813	0.1681
291.294	0.1673
291.5067	0.1628
291.7194	0.1646
291.932	0.1676
292.1447	0.166
292.3573	0.163
292.5699	0.1736
292.7825	0.1687
292.9951	0.1714
293.2077	0.1688
293.4203	0.1643
293.6328	0.1756
293.8454	0.1647
294.0579	0.1684
294.2704	0.1753
294.4829	0.1712
294.6954	0.1622
294.9079	0.174
295.1204	0.1665
295.3328	0.163
295.5453	0.1621
295.7577	0.1605
295.9701	0.1634
296.1825	0.1671
296.3949	0.1628
296.6073	0.1679
296.8197	0.1703
297.0321	0.1666
297.2444	0.1613
297.4567	0.1645
297.6691	0.1714
297.8814	0.166
298.0937	0.1683
298.306	0.1737
298.5182	0.1639
298.7305	0.1728
298.9428	0.1615
299.155	0.1566
299.3672	0.1702
299.5794	0.1732
299.7916	0.1626
300.0038	0.1639
300.216	0.174
300.4282	0.1659
300.6403	0.1654
300.8525	0.1657
301.0646	0.1621
301.2767	0.1698
301.4888	0.1583
301.7009	0.1702
301.913	0.1679
302.125	0.1625
302.3371	0.1775
302.5491	0.1621
302.7612	0.1665
302.9732	0.1697
303.1852	0.1638
303.3972	0.1663
303.6092	0.1627
303.8211	0.1642
304.0331	0.1587
304.245	0.1618
304.457	0.1648
304.6689	0.1642
304.8808	0.1553
305.0927	0.1559
305.3046	0.1578
305.5164	0.1582
305.7283	0.1545
305.9401	0.1552
306.152	0.1501
306.3638	0.1563
306.5756	0.1437
306.7874	0.1407
306.9992	0.1421
307.2109	0.1443
307.4227	0.1391
307.6344	0.1399
307.8462	0.1351
308.0579	0.1371
308.2696	0.132
308.4813	0.1316
308.693	0.1361
308.9046	0.1301
309.1163	0.1215
309.328	0.1259
309.5396	0.1281
309.7512	0.1246
309.9628	0.1206
310.1744	0.114
310.386	0.116
310.5976	0.1185
310.8091	0.1146
311.0207	0.1225
311.2322	0.1098
311.4437	0.1232
311.6552	0.1153
311.8667	0.1106
312.0782	0.1079
312.2897	0.1057
312.5012	0.1099
312.7126	0.0977
312.924	0.098
313.1355	0.0981
313.3469	0.1033
313.5583	0.1059
313.7696	0.107
313.981	0.1031
314.1924	0.096
314.4037	0.0962
314.6151	0.0911
314.8264	0.0995
315.0377	0.0922
315.249	0.0932
315.4603	0.0979
315.6716	0.0924
315.8828	0.1028
316.0941	0.0882
316.3053	0.0887
316.5165	0.0918
316.7277	0.0839
316.9389	0.0933
317.1501	0.0919
317.3613	0.0883
317.5724	0.0861
317.7836	0.0873
317.9947	0.0903
318.2058	0.0992
318.417	0.0828
318.6281	0.0914
318.8391	0.0861
319.0502	0.0816
319.2613	0.0928
319.4723	0.09
319.6834	0.0868
319.8944	0.0834
320.1054	0.0931
320.3164	0.095
320.5274	0.0929
320.7383	0.0895
320.9493	0.0886
321.1602	0.0943
321.3712	0.0962
321.5821	0.0922
321.793	0.0868
322.0039	0.0871
322.2148	0.0959
322.4257	0.0896
322.6365	0.0826
322.8474	0.0864
323.0582	0.0993
323.269	0.0885
323.4798	0.0907
323.6906	0.0906
323.9014	0.0885
324.1122	0.0934
324.3229	0.0929
324.5337	0.0894
324.7444	0.0872
324.9551	0.0964
325.1658	0.0861
325.3765	0.088
325.5872	0.091
325.7979	0.0947
326.0085	0.0935
326.2192	0.0985
326.4298	0.0993
326.6404	0.0909
326.851	0.0858
327.0616	0.086
327.2722	0.092
327.4828	0.0905
327.6933	0.0977
327.9039	0.0973
328.1144	0.0933
328.3249	0.0972
328.5354	0.0923
328.7459	0.0943
328.9564	0.0922
329.1669	0.0908
329.3773	0.0914
329.5878	0.0986
329.7982	0.0939
330.0086	0.0906
330.219	0.103
330.4294	0.0902
330.6398	0.1002
330.8502	0.1009
331.0605	0.097
331.2708	0.1057
331.4812	0.0882
331.6915	0.0936
331.9018	0.0947
332.1121	0.0934
332.3224	0.097
332.5326	0.0856
332.7429	0.1001
332.9531	0.0986
333.1633	0.1051
333.3735	0.1032
333.5837	0.0924
333.7939	0.1004
334.0041	0.0987
334.2143	0.0972
334.4244	0.0956
334.6346	0.1057
334.8447	0.1009
335.0548	0.0962
335.2649	0.0889
335.475	0.0894
335.685	0.1068
335.8951	0.099
336.1051	0.091
336.3152	0.0941
336.5252	0.099
336.7352	0.104
336.9452	0.0982
337.1552	0.0989
337.3652	0.1045
337.5751	0.0983
337.7851	0.0997
337.995	0.1036
338.2049	0.1034
338.4148	0.0933
338.6247	0.0973
338.8346	0.0955
339.0445	0.1071
339.2543	0.1094
339.4642	0.1052
339.674	0.1024
339.8838	0.1004
340.0936	0.1082
340.3034	0.1066
340.5132	0.1052
340.7229	0.1134
340.9327	0.1035
341.1424	0.107
341.3522	0.1095
341.5619	0.1134
341.7716	0.1144
341.9813	0.1114
342.1909	0.112
342.4006	0.1104
342.6102	0.1034
342.8199	0.1127
343.0295	0.11
343.2391	0.1149
343.4487	0.1058
343.6583	0.1116
343.8679	0.112
344.0774	0.1195
344.287	0.1253
344.4965	0.1124
344.706	0.1192
344.9155	0.1223
345.125	0.121
345.3345	0.124
345.544	0.1051
345.7534	0.1215
345.9629	0.1163
346.1723	0.1274
346.3817	0.129
346.5911	0.1235
346.8005	0.1247
347.0099	0.1135
347.2193	0.1244
347.4286	0.1269
347.638	0.127
347.8473	0.1222
348.0566	0.132
348.2659	0.1223
348.4752	0.1295
348.6845	0.1277
348.8937	0.1311
349.103	0.1246
349.3122	0.1238
349.5214	0.1285
349.7306	0.1299
349.9398	0.1233
350.149	0.1294
350.3582	0.1292
350.5674	0.135
350.7765	0.1375
350.9856	0.1284
351.1948	0.1375
351.4039	0.1268
351.613	0.1279
351.822	0.1341
352.0311	0.1345
352.2402	0.1373
352.4492	0.1396
352.6582	0.1341
352.8672	0.1447
353.0762	0.1479
353.2852	0.1444
353.4942	0.149
353.7032	0.1477
353.9121	0.1453
354.1211	0.1355
354.33	0.1415
354.5389	0.1455
354.7478	0.1459
354.9567	0.1423
355.1655	0.1524
355.3744	0.1538
355.5833	0.1359
355.7921	0.1593
356.0009	0.1506
356.2097	0.15
356.4185	0.1461
356.6273	0.1553
356.8361	0.1462
357.0448	0.1516
357.2536	0.1567
357.4623	0.1468
357.671	0.162
357.8797	0.1665
358.0884	0.1598
358.2971	0.1548
358.5057	0.1631
358.7144	0.1592
358.923	0.1751
359.1316	0.1645
359.3402	0.174
359.5488	0.1585
359.7574	0.1757
359.966	0.1804
360.1746	0.1697
360.3831	0.1772
360.5916	0.1774
360.8002	0.1796
361.0087	0.1802
361.2172	0.1798
361.4256	0.1856
361.6341	0.1759
361.8426	0.1868
362.051	0.1738
362.2594	0.1793
362.4678	0.1817
362.6762	0.1881
362.8846	0.1865
363.093	0.1851
363.3014	0.1936
363.5097	0.1897
363.718	0.1972
363.9264	0.1891
364.1347	0.1963
364.343	0.1833
364.5513	0.2021
364.7595	0.1924
364.9678	0.2026
365.176	0.2015
365.3842	0.1937
365.5925	0.199
365.8007	0.1963
366.0089	0.2025
366.217	0.1965
366.4252	0.2112
366.6333	0.2063
366.8415	0.206
367.0496	0.2022
367.2577	0.2056
367.4658	0.2168
367.6739	0.2134
367.882	0.2146
368.09	0.206
368.2981	0.2121
368.5061	0.2071
368.7141	0.215
368.9221	0.2164
369.1301	0.2254
369.3381	0.2229
369.5461	0.2324
369.754	0.2166
369.962	0.2229
370.1699	0.2274
370.3778	0.2238
370.5857	0.2242
370.7936	0.2125
371.0015	0.2297
371.2093	0.2123
371.4172	0.225
371.625	0.2241
371.8328	0.2329
372.0406	0.2336
372.2484	0.2221
372.4562	0.2259
372.664	0.2322
372.8717	0.2241
373.0795	0.2381
373.2872	0.2406
373.4949	0.2333
373.7026	0.2415
373.9103	0.2284
374.118	0.237
374.3256	0.2317
374.5333	0.2299
374.7409	0.2318
374.9485	0.2405
375.1561	0.2386
375.3637	0.2378
375.5713	0.25
375.7789	0.2319
375.9864	0.2367
376.194	0.2499
376.4015	0.2577
376.609	0.2492
376.8165	0.2428
377.024	0.2442
377.2315	0.2479
377.4389	0.2396
377.6464	0.2456
377.8538	0.2553
378.0612	0.2568
378.2686	0.2373
378.476	0.2444
378.6834	0.26
378.8908	0.2635
379.0981	0.2556
379.3055	0.2718
379.5128	0.2472
379.7201	0.2567
379.9274	0.2638
380.1347	0.2643
380.342	0.2739
380.5492	0.2648
380.7565	0.2692
380.9637	0.2704
381.1709	0.2656
381.3781	0.2518
381.5853	0.2747
381.7925	0.2607
381.9997	0.2738
382.2068	0.2642
382.4139	0.2612
382.6211	0.2681
382.8282	0.2633
383.0353	0.2769
383.2424	0.2651
383.4494	0.2762
383.6565	0.2741
383.8635	0.2748
384.0706	0.2725
384.2776	0.2753
384.4846	0.2731
384.6916	0.2729
384.8986	0.274
385.1055	0.2781
385.3125	0.2815
385.5194	0.2786
385.7263	0.2756
385.9333	0.2784
386.1402	0.2792
386.347	0.2975
386.5539	0.2739
386.7608	0.2724
386.9676	0.2769
387.1744	0.2745
387.3813	0.2627
387.5881	0.2702
387.7948	0.2688
388.0016	0.2751
388.2084	0.279
388.4151	0.27
388.6219	0.2703
388.8286	0.2727
389.0353	0.2676
389.242	0.2608
389.4487	0.2605
389.6553	0.2675
389.862	0.2582
390.0686	0.2684
390.2753	0.2512
390.4819	0.2575
390.6885	0.2663
390.8951	0.266
391.1016	0.2607
391.3082	0.2619
391.5147	0.2608
391.7213	0.261
391.9278	0.2497
392.1343	0.2642
392.3408	0.2473
392.5473	0.2614
392.7537	0.2608
392.9602	0.2464
393.1666	0.2476
393.373	0.254
393.5794	0.2474
393.7858	0.2361
393.9922	0.2404
394.1986	0.2438
394.4049	0.2479
394.6113	0.2428
394.8176	0.2339
395.0239	0.2402
395.2302	0.235
395.4365	0.245
395.6428	0.2349
395.8491	0.2366
396.0553	0.2429
396.2615	0.2254
396.4678	0.248
396.674	0.2291
396.8802	0.2373
397.0863	0.2364
397.2925	0.2305
397.4987	0.2345
397.7048	0.234
397.9109	0.2349
398.117	0.2321
398.3231	0.2334
398.5292	0.2303
398.7353	0.2382
398.9413	0.2256
399.1474	0.2415
399.3534	0.2284
399.5594	0.2301
399.7654	0.2344
399.9714	0.2372
400.1774	0.2336
400.3833	0.2308
400.5893	0.2244
400.7952	0.2164
401.0011	0.2395
401.207	0.2343
401.4129	0.221
401.6188	0.2238
401.8247	0.2205
402.0305	0.2261
402.2364	0.2397
402.4422	0.2209
402.648	0.2433
402.8538	0.2341
403.0596	0.2118
403.2654	0.2285
403.4711	0.2271
403.6768	0.2435
403.8826	0.2285
404.0883	0.2351
404.294	0.241
404.4997	0.2327
404.7054	0.2232
404.911	0.2322
405.1167	0.2342
405.3223	0.2339
405.5279	0.2364
405.7335	0.2322
405.9391	0.2265
406.1447	0.231
406.3502	0.2223
406.5558	0.2354
406.7613	0.233
406.9668	0.2288
407.1724	0.2214
407.3778	0.232
407.5833	0.2288
407.7888	0.2361
407.9942	0.2228
408.1997	0.2357
408.4051	0.2322
408.6105	0.2291
408.8159	0.2497
409.0213	0.2259
409.2267	0.2359
409.432	0.2401
409.6374	0.2312
409.8427	0.2458
410.048	0.2198
410.2533	0.2267
410.4586	0.2333
410.6639	0.2247
410.8691	0.2232
411.0744	0.2213
411.2796	0.2402
411.4848	0.2162
411.69	0.2388
411.8952	0.2311
412.1004	0.232
412.3056	0.2346
412.5107	0.2331
412.7158	0.2187
412.921	0.2342
413.1261	0.22
413.3312	0.2334
413.5362	0.2273
413.7413	0.2231
413.9464	0.2196
414.1514	0.2165
414.3564	0.2218
414.5614	0.2248
414.7664	0.2323
414.9714	0.2212
415.1764	0.2208
415.3813	0.2342
415.5863	0.2278
415.7912	0.2374
415.9961	0.2279
416.201	0.2409
416.4059	0.2254
416.6108	0.2229
416.8156	0.2258
417.0205	0.2133
417.2253	0.2211
417.4301	0.2222
417.6349	0.2357
417.8397	0.22
418.0445	0.218
418.2492	0.2127
418.454	0.2284
418.6587	0.2239
418.8634	0.2075
419.0681	0.2184
419.2728	0.2198
419.4775	0.2136
419.6822	0.2205
419.8868	0.2093
420.0915	0.2252
420.2961	0.2107
420.5007	0.2141
420.7053	0.2198
420.9099	0.2131
421.1144	0.2205
421.319	0.2043
421.5235	0.2127
421.728	0.1969
421.9325	0.2002
422.137	0.2023
422.3415	0.2135
422.546	0.2083
422.7504	0.2037
422.9549	0.2064
423.1593	0.2003
423.3637	0.2009
423.5681	0.2
423.7725	0.2011
423.9769	0.2034
424.1812	0.2057
424.3856	0.2006
424.5899	0.1972
424.7942	0.1988
424.9985	0.1979
425.2028	0.1764
425.4071	0.1877
425.6113	0.1953
425.8156	0.1835
426.0198	0.1932
426.224	0.1798
426.4282	0.1805
426.6324	0.1982
426.8366	0.1895
427.0407	0.185
427.2449	0.1805
427.449	0.1817
427.6531	0.1879
427.8572	0.1767
428.0613	0.1666
428.2654	0.1675
428.4694	0.1909
428.6735	0.185
428.8775	0.1725
429.0815	0.1745
429.2855	0.1769
429.4895	0.1705
429.6935	0.1678
429.8975	0.1658
430.1014	0.1653
430.3053	0.1588
430.5093	0.173
430.7132	0.1615
430.9171	0.1514
431.1209	0.1609
431.3248	0.1599
431.5286	0.1493
431.7325	0.1525
431.9363	0.1457
432.1401	0.153
432.3439	0.1456
432.5477	0.1476
432.7514	0.1482
432.9552	0.1447
433.1589	0.1251
433.3627	0.1445
433.5664	0.136
433.7701	0.1348
433.9737	0.1209
434.1774	0.1277
434.3811	0.1239
434.5847	0.1291
434.7883	0.1178
434.9919	0.1232
435.1955	0.1111
435.3991	0.1162
435.6027	0.1184
435.8062	0.1189
436.0098	0.1266
436.2133	0.1023
436.4168	0.1087
436.6203	0.1163
436.8238	0.1021
437.0272	0.1004
437.2307	0.1053
437.4341	0.1146
437.6375	0.1007
437.841	0.1025
438.0443	0.0955
438.2477	0.0949
438.4511	0.1015
438.6545	0.0934
438.8578	0.096
439.0611	0.0911
439.2644	0.1055
439.4677	0.0948
439.671	0.0838
439.8743	0.0903
440.0775	0.0741
440.2808	0.07
440.484	0.0904
440.6872	0.0749
440.8904	0.0687
441.0936	0.0805
441.2967	0.0741
441.4999	0.0625
441.703	0.0655
441.9062	0.0727
442.1093	0.0677
442.3124	0.07
442.5155	0.0684
442.7185	0.0653
442.9216	0.0622
443.1246	0.0597
443.3276	0.0658
443.5307	0.0556
443.7337	0.0646
443.9366	0.0673
444.1396	0.0484
444.3426	0.0551
444.5455	0.0568
444.7484	0.0573
444.9513	0.0578
445.1542	0.0561
445.3571	0.0489
445.56	0.0423
445.7628	0.0448
445.9657	0.053
446.1685	0.0419
446.3713	0.043
446.5741	0.0462
446.7769	0.0465
446.9797	0.0413
447.1824	0.0383
447.3852	0.0385
447.5879	0.042
447.7906	0.0372
447.9933	0.0329
448.196	0.0389
448.3986	0.0312
448.6013	0.0284
448.8039	0.0377
449.0066	0.0435
449.2092	0.0283
449.4118	0.0323
449.6143	0.0312
449.8169	0.0175
450.0195	0.0307
450.222	0.0193
450.4245	0.0291
450.627	0.0305
450.8295	0.0231
451.032	0.036
451.2345	0.0192
451.4369	0.0305
451.6394	0.022
451.8418	0.0223
452.0442	0.0193
452.2466	0.0242
452.449	0.0233
452.6513	0.0154
452.8537	0.0285
453.056	0.016
453.2583	0.0154
453.4607	0.0231
453.663	0.0237
453.8652	0.0064
454.0675	0.0306
454.2697	0.0319
454.472	0.0202
454.6742	0.0192
454.8764	0.0104
455.0786	0.0172
455.2808	0.0135
455.4829	0.0087
455.6851	0.007
455.8872	0.0094
456.0893	0.0122
456.2915	0.0062
456.4935	0.0104
456.6956	0.0165
456.8977	0.0073
457.0997	0.0083
457.3018	0.0168
457.5038	0.0061
457.7058	0.0058
457.9078	0.0074
458.1098	0.005
458.3117	0.0104
458.5137	0.0069
458.7156	0.0221
458.9175	0.0041
459.1194	0.0081
459.3213	0.0088
459.5232	0.0038
459.725	-0.0006
459.9269	-0.0029
460.1287	0.011
460.3305	0.0042
460.5323	0.0051
460.7341	0.0086
460.9359	0.0015
461.1376	0.0068
461.3394	0.0071
461.5411	0.0044
461.7428	-0.0009
461.9445	0.0061
462.1462	-0.0066
462.3479	-0.0016
462.5495	0.0069
462.7512	-0.0039
462.9528	0.0083
463.1544	0.0142
463.356	0.0124
463.5576	0.0022
463.7592	-0.0028
463.9607	-0.0003
464.1623	0.0021
464.3638	0.0086
464.5653	0.004
464.7668	-0.0072
464.9683	0.0107
465.1697	-0.0008
465.3712	-0.0031
465.5726	-0.0058
465.7741	0.0024
465.9755	-0.003
466.1769	-0.0118
466.3782	0.007
466.5796	-0.0072
466.7809	-0.0014
466.9823	-0.0031
467.1836	0.0032
467.3849	0.0044
467.5862	-0.0044
467.7875	-0.009
467.9887	0.0069
468.19	0.0007
468.3912	0.0045
468.5924	0.0004
468.7936	-0.0063
468.9948	0.0145
469.196	-0.0052
469.3972	0.0021
469.5983	0.0138
469.7994	-0.0035
470.0006	-0.0051
470.2017	0.0016
470.4027	-0.0033
470.6038	-0.0003
470.8049	-0.0084
471.0059	-0.0024
471.2069	0.0126
471.408	-0.0052
471.6089	-0.0015
471.8099	-0.0048
472.0109	-0.004
472.2119	-0.0165
472.4128	-0.0019
472.6137	-0.0019
472.8146	-0.0094
473.0155	-0.006
473.2164	-0.0157
473.4173	-0.0109
473.6181	0.0043
473.819	-0.0025
474.0198	-0.0062
474.2206	-0.0057
474.4214	-0.005
474.6222	-0
474.8229	-0.0034
475.0237	0.0009
475.2244	-0.0044
475.4251	-0.0068
475.6258	0.0125
475.8265	0.0003
476.0272	-0.0114
476.2278	-0.0033
476.4285	-0.0018
476.6291	0.003
476.8297	-0.0045
477.0303	-0.0012
477.2309	-0.0013
477.4315	0.0014
477.632	-0.0109
477.8326	-0.0028
478.0331	-0.0045
478.2336	-0.0006
478.4341	-0.008
478.6346	-0.0002
478.8351	-0.0054
479.0355	-0.0003
479.236	-0.0118
479.4364	-0.0042
479.6368	0.0044
479.8372	-0.0011
480.0376	0.0038
480.2379	0.0035
480.4383	-0.0032
480.6386	-0.0106
480.8389	-0.0073
481.0392	-0.0075
481.2395	-0.0046
481.4398	-0.0071
481.6401	-0.0079
481.8403	-0.0009
482.0405	-0.0094
482.2408	0.0018
482.441	0.0031
482.6411	-0.0027
482.8413	0.0014
483.0415	-0.005
483.2416	-0.004
483.4417	-0.0164
483.6419	-0
483.8419	-0.0051
484.042	-0.0039
484.2421	-0.0066
484.4422	-0.0022
484.6422	-0.0094
484.8422	-0.011
485.0422	-0.0028
485.2422	-0.0006
485.4422	-0.0033
485.6422	-0.0029
485.8421	-0.0031
486.042	-0.0037
486.242	-0.0035
486.4419	-0.0004
486.6417	-0.0045
486.8416	-0.0033
487.0415	-0.0064
487.2413	-0.0024
487.4411	0.0036
487.641	-0.0063
487.8408	-0.0071
488.0405	-0.0064
488.2403	0.0019
488.4401	-0.011
488.6398	-0.0031
488.8395	-0.0031
489.0392	-0.0092
489.2389	-0.0005
489.4386	-0.0049
489.6383	-0.0048
489.8379	-0.0028
490.0376	-0.0026
490.2372	0.0035
490.4368	-0.0147
490.6364	-0.0002
490.836	-0.0064
491.0355	-0.0067
491.2351	-0.0076
491.4346	-0.0014
491.6341	-0.0026
491.8336	-0.0025
492.0331	-0.0061
492.2326	-0.0025
492.432	-0.0007
492.6315	-0.0056
492.8309	-0.0085
493.0303	-0.01
493.2297	-0.0015
493.4291	-0.0011
493.6284	-0.0003
493.8278	-0.0035
494.0271	-0.0053
494.2264	-0.0021
494.4257	0.0045
494.625	-0.0017
494.8243	-0.0043
495.0236	-0.0166
495.2228	-0.0046
495.422	-0.0015
495.6213	-0.0051
495.8205	-0.0029
496.0196	-0.0061
496.2188	-0.0038
496.418	-0.0032
496.6171	0.0022
496.8162	-0.0061
497.0153	0.0016
497.2144	-0.0035
497.4135	-0.0078
497.6126	-0.0095
497.8116	0.0032
498.0107	-0.0105
498.2097	-0.0025
498.4087	-0.0081
498.6077	-0.0062
498.8067	-0.0073
499.0056	-0.0021
499.2046	-0.0048
499.4035	-0.0036
499.6024	0.0011
499.8013	0.0026
500.0002	-0.0074
500.199	-0.0032
500.3979	0.0029
500.5967	-0.0097
500.7956	-0.0115
500.9944	0.0005
501.1932	-0.0014
501.3919	-0.0109
501.5907	-0.0048
501.7895	0.0042
501.9882	-0.0053
502.1869	0.0003
502.3856	-0.0044
502.5843	-0.0049
502.783	-0.0066
502.9816	-0.0073
503.1803	-0.0027
503.3789	0.0009
503.5775	-0.0004
503.7761	-0.0022
503.9747	-0.0055
504.1732	-0.0029
504.3718	-0.0053
504.5703	-0.0054
504.7689	-0.0026
504.9674	-0.0021
505.1658	-0.0015
505.3643	-0.0062
505.5628	0.0057
505.7612	-0.0099
505.9597	-0.0022
506.1581	-0.0016
506.3565	-0.005
506.5549	-0.0028
506.7532	-0.0042
506.9516	0.0042
507.1499	0.0008
507.3482	-0.0012
507.5465	-0.0044
507.7448	-0.0014
507.9431	-0.0015
508.1414	-0.0063
508.3396	-0.0012
508.5379	-0.0035
508.7361	0.0048
508.9343	-0.005
509.1325	-0.0063
509.3306	0.0045
509.5288	-0.0024
509.7269	-0.0132
509.9251	-0.0072
510.1232	-0.0012
510.3213	-0.0108
510.5193	0.0001
510.7174	-0.0007
510.9154	0.0006
511.1135	0.0018
511.3115	-0.0052
511.5095	-0.0097
511.7075	-0.0005
511.9055	-0.0013
512.1034	-0.0049
512.3014	-0.0096
512.4993	-0.0061
512.6972	-0.0053
512.8951	-0.006
513.093	-0.0084
513.2908	-0.0013
513.4887	-0.0004
513.6865	-0.0062
513.8844	0.0038
514.0822	0.0018
514.2799	-0.0095
514.4777	-0.0034
514.6755	0.0011
514.8732	-0.0135
515.0709	-0.0063
515.2687	-0.006
515.4664	-0.0028
515.664	-0.0016
515.8617	-0.0025
516.0594	-0.0036
516.257	0.0014
516.4546	-0.0063
516.6522	-0.0121
516.8498	-0.012
517.0474	0.0024
517.2449	-0.0074
517.4425	-0.0069
517.64	-0.0033
517.8375	-0.0103
518.035	-0.0017
518.2325	-0.0071
518.43	0.0028
518.6274	-0.0069
518.8249	-0.0002
519.0223	-0.005
519.2197	-0.0048
519.4171	-0.0001
519.6145	-0.0033
519.8118	-0.0055
520.0092	0.0007
520.2065	-0.0137
520.4038	-0.0016
520.6011	-0.0078
520.7984	-0.0066
520.9956	-0.0047
521.1929	-0.0011
521.3901	-0.0035
521.5874	-0.0075
521.7846	0.0059
521.9818	0.0008
522.1789	-0.0018
522.3761	-0.0113
522.5732	-0.0025
522.7704	-0.0051
522.9675	-0.0095
523.1646	-0.0014
523.3617	0.0019
523.5587	-0.0127
523.7558	0.0029
523.9528	-0.0054
524.1498	-0.004
524.3468	0.0026
524.5438	-0.0021
524.7408	-0.0116
524.9378	-0.0077
525.1347	-0.0007
525.3316	0.002
525.5285	-0.0049
525.7254	-0.0067
525.9223	0.0026
526.1192	-0.0009
526.316	-0.0002
526.5129	-0.003
526.7097	-0.0061
526.9065	-0.0002
527.1033	0.0006
527.3	0.0001
527.4968	-0.0116
527.6935	-0.004
527.8903	-0.0009
528.087	-0.0157
528.2837	-0.0018
528.4804	-0.0068
528.677	0.0002
528.8737	-0.0109
529.0703	0.0037
529.2669	0.0037
529.4635	-0.0092
529.6601	-0.0021
529.8567	0.001
530.0532	0.0002
530.2498	-0.0007
530.4463	0.0016
530.6428	0.0056
530.8393	-0.0007
531.0358	-0.0071
531.2322	-0.0011
531.4287	-0.0116
531.6251	-0.0023
531.8215	-0.001
532.0179	-0.0086
532.2143	0.0009
532.4107	-0.0014
532.607	-0.001
532.8034	-0.004
532.9997	-0.0082
533.196	-0.0072
533.3923	0.0016
533.5886	0.0006
533.7848	-0.0038
533.9811	0.0018
534.1773	-0.0091
534.3735	0.0008
534.5697	-0.0038
534.7659	-0.005
534.9621	-0.0011
535.1582	-0.0024
535.3544	-0.0033
535.5505	-0.0043
535.7466	-0.0064
535.9427	0.0038
536.1387	0.008
536.3348	-0.0005
536.5308	-0.0049
536.7269	-0.0029
536.9229	-0.0008
537.1189	-0.0047
537.3148	-0.0018
537.5108	0.0053
537.7068	0.0005
537.9027	-0.004
538.0986	-0.0004
538.2945	-0.0004
538.4904	-0.0078
538.6863	-0.0097
538.8821	-0.001
539.078	-0.0098
539.2738	-0.0086
539.4696	-0.0054
539.6654	-0.0064
539.8611	-0.0055
540.0569	-0.0005
540.2526	-0.0001
540.4484	0.0072
540.6441	0.0001
540.8398	-0.0039
541.0355	0.0006
541.2311	-0.0058
541.4268	0.0025
541.6224	0.001
541.818	-0.0046
542.0136	-0.0069
542.2092	-0.0052
542.4048	-0.004
542.6003	-0.0042
542.7959	-0
542.9914	-0.0087
543.1869	-0.0048
543.3824	-0.0088
543.5779	-0.0063
543.7734	-0.0125
543.9688	-0.0139
544.1642	-0.0043
544.3596	-0.0097
544.555	-0.0051
544.7504	-0.0051
544.9458	-0.0012
545.1411	0.007
545.3365	-0.0031
545.5318	0.0035
545.7271	0.0037
545.9224	0.0002
546.1177	-0.005
546.3129	0.0049
546.5081	0.0018
546.7034	-0.003
546.8986	-0.0059
547.0938	-0.0001
547.289	0.0001
547.4841	-0.0073
547.6793	-0.0045
547.8744	0.0012
548.0695	-0.0088
548.2646	-0.0104
548.4597	-0.0002
548.6548	0.0012
548.8498	-0.0081
549.0448	0.006
549.2399	-0.0048
549.4349	-0.0053
549.6298	-0.0059
549.8248	0.0012
550.0198	0.0019
550.2147	-0.0013
550.4096	-0.0033
550.6045	-0.0028
550.7994	0.0042
550.9943	0.002
551.1892	-0.0016
551.384	-0.0102
551.5788	-0.007
551.7737	-0.0036
551.9685	-0.0059
552.1632	-0.0045
552.358	-0.0106
552.5528	-0.0037
552.7475	-0.0067
552.9422	-0.0093
553.1369	-0.0059
553.3316	0.0022
553.5263	-0.0015
553.7209	-0.0018
553.9156	-0.0026
554.1102	-0.0056
554.3048	-0.0047
554.4994	-0.0031
554.694	-0.0006
554.8885	-0.0047
555.0831	-0.0032
555.2776	-0.0032
555.4721	-0.0066
555.6666	-0.0009
555.8611	-0.0051
556.0555	-0.0108
556.25	-0.0063
556.4444	-0.0046
556.6388	-0.0049
556.8332	-0.0015
557.0276	-0.0071
557.222	0.0017
557.4163	-0.0013
557.6107	-0.0029
557.805	-0.0055
557.9993	-0.0025
558.1936	-0.0037
558.3879	0.0025
558.5821	-0.0055
558.7764	-0.0101
558.9706	-0.0046
559.1648	-0.0038
559.359	-0.0011
559.5532	-0.0038
559.7473	-0.0018
559.9415	-0.0035
560.1356	-0.0117
560.3297	-0.0108
560.5238	-0.0021
560.7179	-0.009
560.9119	0.0021
561.106	-0.0037
561.3	-0.0017
561.494	0.0012
561.688	-0.0012
561.882	-0.0083
562.076	-0.0018
562.2699	-0.0019
562.4639	-0.004
562.6578	-0.0066
562.8517	-0.0037
563.0456	-0.0048
563.2395	-0.0018
563.4333	-0.0034
563.6272	-0.0103
563.821	-0.0001
564.0148	0.0038
564.2086	-0.0069
564.4024	-0.003
564.5961	0.0011
564.7899	0.0018
564.9836	0.0053
565.1773	0.0006
565.371	-0.0012
565.5647	-0.0048
565.7584	0.0027
565.952	0.0039
566.1456	-0.0066
566.3393	-0.0014
566.5329	-0.0023
566.7264	0.001
566.92	-0.0005
567.1136	-0.0039
567.3071	-0.0037
567.5006	-0.0023
567.6941	-0.0016
567.8876	-0.0004
568.0811	0.0006
568.2745	-0.0082
568.468	-0.0038
568.6614	-0.0072
568.8548	-0.0077
569.0482	-0.0032
569.2416	-0.0039
569.4349	-0.0029
569.6283	-0.0037
569.8216	-0.0036
570.0149	-0.0044
570.2082	0.0007
570.4015	-0.0014
570.5947	-0.0024
570.788	-0.0041
570.9812	-0.0042
571.1744	-0.0064
571.3676	-0.0027
571.5608	-0.0031
571.754	0.0005
571.9471	-0.0043
572.1402	-0.0053
572.3333	0.0017
572.5264	-0.0001
572.7195	0.0021
572.9126	-0.0033
573.1057	-0.0021
573.2987	-0.0002
573.4917	-0.007
573.6847	-0.0002
573.8777	-0.0072
574.0707	0.0017
574.2636	-0.0002
574.4566	-0.007
574.6495	-0.003
574.8424	-0.0002
575.0353	-0.001
575.2281	-0.0014
575.421	-0.0087
575.6138	-0.0055
575.8067	-0.0025
575.9995	-0.0049
576.1923	-0.0044
576.385	-0.0051
576.5778	-0.0013
576.7706	0.0018
576.9633	-0.0024
577.156	0.0024
577.3487	-0.0028
577.5414	0.0001
577.734	0.0076
577.9267	0.0013
578.1193	-0.0034
578.3119	-0.0011
578.5045	-0.0032
578.6971	0.0017
578.8897	-0.0053
579.0822	-0.0036
579.2747	0.0068
579.4673	-0.0019
579.6598	-0.0023
579.8522	0.0003
580.0447	-0.004
580.2372	-0.0002
580.4296	0.0001
580.622	0.0068
580.8144	-0.0025
581.0068	-0.0021
581.1992	0.0039
581.3915	-0.0014
581.5839	-0.0031
581.7762	-0.0063
581.9685	0.0026
582.1608	-0.0077
582.353	0.0027
582.5453	-0.0053
582.7375	0.0032
582.9298	-0.0071
583.122	-0.0013
583.3142	0.0014
583.5063	-0.0027
583.6985	-0.004
583.8906	-0.0069
584.0827	-0.0043
584.2749	-0.0068
584.4669	-0.0021
584.659	-0.0087
584.8511	-0.0049
585.0431	-0.0043
585.2352	-0.0043
585.4272	-0.0084
585.6192	-0.0028
585.8111	-0.0051
586.0031	-0.002
586.195	-0.008
586.387	0.0016
586.5789	-0.0009
586.7708	-0.009
586.9627	-0.0026
587.1545	-0.0053
587.3464	-0.0087
587.5382	-0.0085
587.73	-0.002
587.9218	-0.0043
588.1136	0.0027
588.3053	-0.001
588.4971	-0.007
588.6888	-0.0053
588.8805	-0.0004
589.0722	0.0017
589.2639	-0.0023
589.4556	0.0007
589.6472	-0.0033
589.8389	-0.0032
590.0305	-0.0037
590.2221	-0.0012
590.4137	-0.0008
590.6052	-0.0041
590.7968	-0.0012
590.9883	-0.0056
591.1798	-0.0069
591.3713	0.0003
591.5628	-0.0051
591.7543	0.0006
591.9458	-0.0041
592.1372	0.0016
592.3286	-0.0055
592.52	-0.0048
592.7114	0.0049
592.9028	-0.0015
593.0941	-0.0003
593.2855	-0.0008
593.4768	-0.0019
593.6681	0.0009
593.8594	0.0023
594.0506	0.0002
594.2419	0.0037
594.4331	-0.0008
594.6244	-0.0063
594.8156	-0.0039
595.0067	-0.0024
595.1979	-0.006
595.3891	-0.003
595.5802	-0.0035
595.7713	0.002
595.9624	0.0023
596.1535	-0.0043
596.3446	-0.0026
596.5357	-0.0014
596.7267	-0.0033
596.9177	0.0009
597.1087	-0.0002
597.2997	0.0014
597.4907	-0.0027
597.6817	-0.0029
597.8726	-0.0047
598.0635	-0.0062
598.2544	-0.0047
598.4453	-0.0048
598.6362	-0.0056
598.827	-0.0072
599.0179	-0.0003
599.2087	-0.0126
599.3995	-0.0082
599.5903	0.0038
599.7811	-0.006
599.9718	-0.0017
600.1626	0.0023
600.3533	-0.002
600.544	-0.0002
600.7347	0.0032
600.9254	0.0011
601.116	-0.002
601.3067	-0.0049
601.4973	-0.0047
601.6879	-0.0016
601.8785	-0.0037
602.0691	-0.0023
602.2596	-0.0006
602.4502	-0.0024
602.6407	0.0002
602.8312	-0.0057
603.0217	-0.0001
603.2122	-0.0058
603.4027	0.001
603.5931	-0.0045
603.7835	-0.0004
603.9739	-0
604.1643	-0.0014
604.3547	-0.0013
604.5451	-0.0017
604.7354	-0.0028
604.9257	-0.0055
605.116	-0.0029
605.3063	0.0007
605.4966	-0.0027
605.6869	-0.0029
605.8771	-0.0009
606.0673	-0.0037
606.2575	-0.0061
606.4477	-0.0068
606.6379	-0.0071
606.8281	-0.0062
607.0182	-0.0111
607.2083	-0.0071
607.3985	-0.009
607.5885	-0.0002
607.7786	-0.0028
607.9687	-0.0038
608.1587	-0.0047
608.3488	-0.0018
608.5388	0.0022
608.7288	-0.0054
608.9187	-0.0054
609.1087	-0.0036
609.2986	-0.0056
609.4886	-0.0052
609.6785	-0.0046
609.8684	-0.0007
610.0582	0.0018
610.2481	-0.0018
610.4379	-0.0022
610.6278	-0.0021
610.8176	-0.0018
611.0074	-0.0011
611.1971	-0.0005
611.3869	-0.0033
611.5766	0.0035
611.7664	0.0009
611.9561	-0.0013
612.1458	0.0047
612.3354	-0.0018
612.5251	-0.0027
612.7147	-0.0012
612.9044	-0.0012
613.094	-0.0031
613.2836	-0.0042
613.4731	-0.006
613.6627	-0.0038
613.8522	-0.002
614.0417	-0.0063
614.2313	-0.0069
614.4207	-0.002
614.6102	0.0036
614.7997	-0.0051
614.9891	-0.0016
615.1785	-0.0049
615.3679	0.0044
615.5573	0.0007
615.7467	0.0029
615.9361	-0.0013
616.1254	-0.0027
616.3147	-0.0043
616.504	0.0019
616.6933	0.0016
616.8826	-0.0097
617.0718	-0.0046
617.2611	-0.001
617.4503	0.0006
617.6395	-0.0033
617.8287	0.0004
618.0179	0.0039
618.207	-0.0022
618.3961	-0.004
618.5853	-0.0046
618.7744	-0.0031
618.9634	-0.0004
619.1525	-0.0008
619.3416	-0.0082
619.5306	-0.0016
619.7196	-0.0028
619.9086	0.0004
620.0976	-0.0026
620.2866	0.0009
620.4755	-0.0033
620.6645	0.0025
620.8534	-0.0007
621.0423	-0.0065
621.2312	-0.0013
621.42	0.0013
621.6089	-0.0046
621.7977	-0.002
621.9865	-0.0038
622.1753	0.0019
622.3641	0.0039
622.5529	-0.0005
622.7416	-0.0042
622.9303	0.0044
623.1191	-0.0103
623.3078	-0.0002
623.4964	-0.0029
623.6851	0.0011
623.8737	-0.0001
624.0624	0.0022
624.251	0.0001
624.4396	-0.0008
624.6282	0.0021
624.8167	0.002
625.0053	-0.0008
625.1938	-0.0004
625.3823	0.0026
625.5708	-0.0038
625.7593	0.0012
625.9477	-0.006
626.1362	-0.0002
626.3246	0.0019
626.513	-0.0072
626.7014	-0.0034
626.8898	-0.0022
627.0781	-0.0062
627.2665	-0.0028
627.4548	-0.012
627.6431	-0.0028
627.8314	-0.0018
628.0197	0.0012
628.2079	0.0015
628.3962	0.0036
628.5844	-0.0004
628.7726	-0.0003
628.9608	-0.0021
629.1489	0.0026
629.3371	-0.0001
629.5252	0.0044
629.7134	-0.0009
629.9015	-0.0015
630.0895	0.0011
630.2776	-0.0014
630.4657	0.0001
630.6537	-0.0017
630.8417	0.0029
631.0297	0.0018
631.2177	-0.0013
631.4057	0.0032
631.5936	0.0032
631.7815	-0.006
631.9695	-0.0008
632.1574	-0.0053
632.3452	-0.0028
632.5331	-0.0059
632.7209	-0.0031
632.9088	-0.005
633.0966	0.0008
633.2844	-0.0022
633.4722	-0.0041
633.6599	0.0013
633.8477	-0.0059
634.0354	-0.0049
634.2231	-0.0042
634.4108	-0.0032
634.5985	-0.0027
634.7861	-0.0021
634.9738	-0.003
635.1614	-0.0083
635.349	-0.0026
635.5366	-0.0021
635.7242	-0.0005
635.9117	0.0017
636.0993	-0.0021
636.2868	0.0011
636.4743	-0.0013
636.6618	-0.0071
636.8492	0.0011
637.0367	-0.0008
637.2241	-0.0008
637.4115	-0.0083
637.5989	-0.0002
637.7863	-0.0052
637.9737	-0.0068
638.161	0.0022
638.3484	-0.0018
638.5357	-0.0005
638.723	-0.0028
638.9103	-0.0012
639.0975	0.0027
639.2848	-0.0031
639.472	0.0021
639.6592	0.0084
639.8464	-0.0052
640.0336	-0.0073
640.2208	0.005
640.4079	-0.0012
640.595	0.0009
640.7821	-0.0017
640.9692	0.0005
641.1563	0.0005
641.3434	0.0024
641.5304	0.0005
641.7174	0.0027
641.9044	0.006
642.0914	-0.0001
642.2784	0.0032
642.4653	0.0065
642.6523	-0.0007
642.8392	0.006
643.0261	0.007
643.213	0.0008
643.3999	-0.0017
643.5867	0.0021
643.7735	0.0012
643.9604	-0.0002
644.1472	0.0002
644.3339	-0.0001
644.5207	-0.0031
644.7075	-0.0048
644.8942	-0.0039
645.0809	-0.0003
645.2676	-0.0034
645.4543	0.0021
645.6409	-0.0018
645.8276	-0.0019
646.0142	-0.0018
646.2008	-0.0034
646.3874	-0.0043
646.574	-0.0056
646.7605	0.0001
646.9471	-0.0064
647.1336	-0.0051
647.3201	-0.0045
647.5066	0.0028
647.6931	-0.0025
647.8795	-0.0042
648.0659	-0.0016
648.2524	-0.0053
648.4388	-0.0024
648.6252	-0.002
648.8115	-0.0062
648.9979	-0.0007
649.1842	-0.0102
649.3705	0.0008
649.5568	-0.0005
649.7431	-0.0014
649.9294	-0.0053
650.1156	-0.0024
650.3018	-0.0068
650.488	-0.0083
650.6742	-0.0043
650.8604	-0.0019
651.0466	0.0058
651.2327	-0.0063
651.4188	0.0031
651.6049	0.0039
651.791	0.0027
651.9771	0.0016
652.1632	-0.0009
652.3492	0.0058
652.5352	-0.0006
652.7212	0.0009
652.9072	0.0027
653.0932	0.0008
653.2791	-0.0042
653.465	-0.0015
653.651	-0.0035
653.8369	-0.0028
654.0227	0.0049
654.2086	-0.0022
654.3944	-0.0078
654.5803	-0.0068
654.7661	-0.0032
654.9519	-0.0005
655.1377	-0.0024
655.3234	-0.0001
655.5092	-0.0001
655.6949	-0.0001
655.8806	-0.0001
656.0663	-0.0001
656.2519	-0.0001
656.4376	-0.0048
656.6232	-0.0012
656.8088	-0.0011
656.9945	-0.0035
657.18	0.001
657.3656	-0.0017
657.5511	-0.0048
657.7367	-0.0065
657.9222	-0.0014
658.1077	-0.0001
658.2932	-0.0085
658.4786	0.0015
658.6641	-0.0018
658.8495	-0.0002
659.0349	-0.0013
659.2203	-0.0038
659.4057	-0.0043
659.591	-0.0006
659.7764	-0.0049
659.9617	-0.002
660.147	-0.0008
660.3323	-0.0058
660.5176	-0.0073
660.7028	-0.0026
660.888	0.0014
661.0733	-0.0008
661.2585	-0.0054
661.4436	-0.0011
661.6288	-0.0074
661.8139	-0.0006
661.9991	0.0006
662.1842	0.0001
662.3693	-0.0012
662.5544	-0.0032
662.7394	0.003
662.9245	0.0003
663.1095	0.0041
663.2945	-0.0001
663.4795	-0.0029
663.6644	-0.0061
663.8494	-0.0064
664.0343	-0.0035
664.2193	-0.0075
664.4042	-0.0098
664.589	-0.0038
664.7739	-0.0031
664.9587	0.0047
665.1436	0.0039
665.3284	-0.0004
665.5132	0.0026
665.698	0.0086
665.8827	0.0038
666.0675	-0.008
666.2522	-0.0131
666.4369	-0.0052
666.6216	-0.0093
666.8063	-0.0066
666.9909	-0.0083
667.1756	-0.0034
667.3602	-0.0121
667.5448	-0.0097
667.7294	-0.0019
667.9139	-0.0056
668.0985	-0.0105
668.283	-0.0081
668.4675	-0.0151
668.652	-0.0116
668.8365	-0.0103
669.0209	-0.0096
669.2054	-0.0011
669.3898	-0.0044
669.5742	-0.0079
669.7586	-0.0057
669.943	-0.0034
670.1273	-0.0106
670.3117	-0.0023
670.496	-0.002
670.6803	-0.0015
670.8646	-0.0018
671.0488	0.0037
671.2331	-0.0016
671.4173	-0.0028
671.6015	-0.0028
671.7857	-0.0066
671.9699	-0.0063
672.1541	-0.0049
672.3382	-0.0076
672.5223	-0.004
672.7064	-0.007
672.8905	-0.0132
673.0746	-0.01
673.2587	-0.0155
673.4427	-0.0107
673.6267	-0.0164
673.8107	-0.0113
673.9947	-0.0112
674.1787	-0.0049
674.3626	-0.0052
674.5465	-0.0053
674.7304	0.0026
674.9143	0.0003
675.0982	-0.0027
675.2821	-0.0047
675.4659	-0.0071
675.6497	-0.0039
675.8335	0.0005
676.0173	-0.0086
676.2011	-0.0063
676.3849	-0.0039
676.5686	-0.0011
676.7523	-0.0041
676.936	-0.0021
677.1197	-0.0041
677.3034	-0.0055
677.487	-0.0078
677.6706	-0.0062
677.8542	-0.0066
678.0378	-0.0044
678.2214	-0.0083
678.405	-0.0077
678.5885	-0.0101
678.772	-0.0051
678.9555	-0.004
679.139	-0.0057
679.3225	-0.0058
679.5059	-0.0063
679.6894	-0.0023
679.8728	0.0008
680.0562	0.0009
680.2395	0.0002
680.4229	0.0051
680.6062	0.0019
680.7896	0.0019
680.9729	-0.0036
681.1562	-0.0025
681.3394	-0.001
681.5227	-0.002
681.7059	-0.0054
681.8891	-0.006
682.0723	-0.0015
682.2555	-0.0041
682.4387	-0.0004
682.6218	-0.0083
682.805	-0.0052
682.9881	-0.0046
683.1712	0.0014
683.3542	0
683.5373	-0.008
683.7203	0
683.9034	-0.0052
684.0864	-0.0017
684.2694	0.0008
684.4523	-0.0038
684.6353	0.0006
684.8182	-0.0014
685.0011	-0.0087
685.184	-0.0002
685.3669	-0.0008
685.5498	0.0003
685.7326	-0.0046
685.9154	0.0004
686.0982	-0.0057
686.281	-0.0057
686.4638	-0.0043
686.6465	-0.003
686.8293	-0.0039
687.012	-0.0067
687.1947	-0.0083
687.3774	-0.0047
687.56	-0.0087
687.7427	-0.0021
687.9253	-0.0005
688.1079	-0.0005
688.2905	-0.0005
688.4731	-0.0024
688.6556	-0.0055
688.8382	-0.0006
689.0207	0.0025
689.2032	0.0023
689.3857	-0.0013
689.5681	-0.0016
689.7506	-0.0003
689.933	0.0008
690.1154	0.0034
690.2978	0.0018
690.4802	-0.0032
690.6626	0.0063
690.8449	0.0058
691.0272	0.0041
691.2095	0.0007
691.3918	-0.0017
691.5741	-0.0026
691.7563	-0.0001
691.9386	-0.0007
692.1208	-0.0072
692.303	-0.007
692.4852	0.0001
692.6673	-0.0006
692.8495	-0.0062
693.0316	0.0037
693.2137	-0.0029
693.3958	-0.0064
693.5778	-0.0016
693.7599	-0.0067
693.9419	-0.0067
694.1239	-0.0036
694.3059	-0.0083
694.4879	-0.0045
694.6699	-0.0061
694.8518	-0.0018
695.0337	-0.0062
695.2157	-0.0029
695.3975	-0.0055
695.5794	-0.0022
695.7613	-0.0057
695.9431	-0.0058
696.1249	-0.0029
696.3067	-0.0004
696.4885	-0.0004
696.6703	-0.0045
696.852	-0.0054
697.0337	0.0003
697.2154	-0.0026
697.3971	-0.0031
697.5788	-0.0066
697.7605	-0.0022
697.9421	-0.002
698.1237	-0.0039
698.3053	-0.0029
698.4869	-0.0004
698.6685	-0.0029
698.85	0.0013
699.0315	0.0003
699.213	-0.0006
699.3945	0.0008
699.576	0.0086
699.7575	-0.003
699.9389	0.0007
700.1203	-0.0042
700.3017	-0.0058
700.4831	-0.0045
700.6645	-0.0073
700.8458	-0.0006
701.0271	-0.0005
701.2084	-0.0057
701.3897	-0.0037
701.571	0.0016
701.7523	0.0037
701.9335	0.0058
702.1147	0.0079
702.2959	-0.0025
702.4771	0.0034
702.6583	0.0019
702.8394	-0.0015
703.0205	-0.0054
703.2016	-0.0006
703.3827	0.0046
703.5638	-0.0074
703.7449	-0.0093
703.9259	-0.002
704.1069	0.0004
704.2879	-0.0032
704.4689	-0.0061
704.6499	-0.004
704.8308	0.0008
705.0117	-0.001
705.1927	-0.0013
705.3735	0.0015
705.5544	0
705.7353	0.0016
705.9161	0.0027
706.0969	0.0002
706.2777	-0.0026
706.4585	-0.0003
706.6393	-0.0028
706.82	-0.0036
707.0007	-0.0017
707.1815	-0.003
707.3621	-0.003
707.5428	-0.0028
707.7235	0.0017
707.9041	0.0006
708.0847	-0.001
708.2653	-0.0054
708.4459	-0.006
708.6265	-0.0027
708.807	0.0021
708.9875	-0.0019
709.168	-0.0047
709.3485	-0.0004
709.529	-0.0054
709.7095	-0.0023
709.8899	-0.0064
710.0703	0.0005
710.2507	-0.0047
710.4311	0.0009
710.6115	0.0017
710.7918	0.0003
710.9721	0.0034
711.1524	-0.002
711.3327	-0.0006
711.513	-0.0061
711.6932	-0.0068
711.8735	0.0024
712.0537	0.0032
712.2339	-0.0022
712.4141	-0.0045
712.5942	0.0026
712.7744	0.0011
712.9545	-0.0008
713.1346	-0.0007
713.3147	0.006
713.4947	0.0079
713.6748	-0.003
713.8548	-0.0074
714.0348	-0.0015
714.2148	-0.0029
714.3948	-0.0042
714.5748	-0.006
714.7547	-0.0071
714.9346	-0.001
715.1145	-0.0078
715.2944	0.0029
715.4743	-0.002
715.6541	-0.0045
715.834	0.0001
716.0138	0.0014
716.1936	0.001
716.3733	-0.0046
716.5531	-0.0048
716.7328	-0.0034
716.9126	-0.0051
717.0923	-0.003
717.2719	-0.0084
717.4516	-0.0029
717.6312	0.0066
717.8109	0.0038
717.9905	-0.0093
718.1701	-0.0022
718.3496	-0.0039
718.5292	-0.0046
718.7087	0.0012
718.8882	-0.0021
719.0677	-0.0047
719.2472	-0.0015
719.4267	-0.0096
719.6061	-0.0098
719.7856	-0.0037
719.965	-0.0104
720.1443	-0.0022
720.3237	-0.0044
720.5031	-0.0053
720.6824	-0.0028
720.8617	-0.0004
721.041	0.0045
721.2203	-0.0069
721.3995	-0.0022
721.5788	-0.0062
721.758	-0.0051
721.9372	-0.0025
722.1164	-0.0072
722.2956	-0.0124
722.4747	-0.0038
722.6538	-0.0048
722.8329	-0.0055
723.012	-0.0074
723.1911	0.0014
723.3702	0.0014
723.5492	-0.0003
723.7282	0.0009
723.9072	-0.0018
724.0862	-0.0013
724.2652	-0.0015
724.4441	-0.0088
724.623	0.0022
724.8019	-0.0063
724.9808	-0.0037
725.1597	0.0014
725.3385	0.0016
725.5174	0.0044
725.6962	-0.0038
725.875	0.004
726.0538	0.0054
726.2325	-0.002
726.4112	-0.002
726.59	-0.0032
726.7687	-0.0029
726.9474	-0.006
727.126	-0.0003
727.3047	-0.0028
727.4833	-0.0011
727.6619	-0.0119
727.8405	0.0015
728.0191	0.0019
728.1976	-0.0025
728.3762	-0.0085
728.5547	-0.0073
728.7332	-0.0075
728.9116	-0.011
729.0901	-0.0117
729.2686	-0.0048
729.447	-0.0009
729.6254	-0.0081
729.8038	-0.0094
729.9821	-0
730.1605	-0.0008
730.3388	-0.0036
730.5171	0.002
730.6954	-0.0038
730.8737	0.0011
731.0519	-0.0021
731.2302	0.0043
731.4084	0.0015
731.5866	0.0018
731.7648	-0.003
731.9429	-0.0004
732.1211	0.0039
732.2992	0.0009
732.4773	-0.0001
732.6554	-0.0063
732.8335	-0.0068
733.0115	-0.0064
733.1896	-0.0103
733.3676	0.0005
733.5456	-0.0037
733.7235	-0.0038
733.9015	0.002
734.0794	-0.0045
734.2574	-0.0044
734.4353	-0.0067
734.6131	-0.0012
734.791	-0.0027
734.9689	-0.0022
735.1467	0.0033
735.3245	-0.0024
735.5023	-0.0026
735.68	-0.0035
735.8578	0.0027
736.0355	0.0055
736.2132	0.0031
736.3909	-0.0023
736.5686	-0.0036
736.7463	-0.0031
736.9239	-0.004
737.1015	-0.0026
737.2791	-0.0047
737.4567	-0.0092
737.6343	0.0003
737.8118	-0.0062
737.9894	-0.0007
738.1669	-0.0049
738.3444	0.0004
738.5218	0.0007
738.6993	-0.0009
738.8767	0
739.0541	-0.0062
739.2315	-0.0051
739.4089	-0.0015
739.5863	-0.0053
739.7636	-0.0086
739.9409	-0.0004
740.1182	0.0099
740.2955	-0.0013
740.4728	-0.0061
740.65	-0.0019
740.8272	0.0045
741.0044	0.0014
741.1816	0.003
741.3588	0.0062
741.5359	-0.0016
741.7131	-0.0004
741.8902	0.0033
742.0673	0.0005
742.2444	-0.0083
742.4214	-0.0012
742.5985	-0.0068
742.7755	-0.007
742.9525	0.0028
743.1295	-0.0048
743.3064	-0.0057
743.4834	-0.0029
743.6603	-0.0092
743.8372	-0.0007
744.0141	-0.0022
744.191	-0.0096
744.3678	-0.0027
744.5446	0.0002
744.7215	-0.0071
744.8982	-0.0034
745.075	-0.0036
745.2518	-0.0038
745.4285	-0.0035
745.6052	0.0024
745.7819	0.0016
745.9586	-0.0024
746.1353	-0.0061
746.3119	-0.0022
746.4885	-0.0072
746.6651	-0.0052
746.8417	-0.0056
747.0183	-0.0017
747.1948	-0.0037
747.3714	-0.0012
747.5479	-0.0011
747.7244	0.0009
747.9008	0.0015
748.0773	0.001
748.2537	0.0004
748.4301	0.0027
748.6065	-0.0015
748.7829	-0.0015
748.9593	-0.0038
749.1356	-0.0056
749.3119	0.0008
749.4882	0.0015
749.6645	-0.006
749.8408	-0.0001
750.017	-0.0058
750.1933	0.0024
750.3695	-0.0092
750.5457	-0.0066
750.7218	-0.0054
750.898	-0.0054
751.0741	-0.0062
751.2502	-0.0042
751.4263	-0.0059
751.6024	-0.0038
751.7784	0.0041
751.9545	-0.0028
752.1305	0.0044
752.3065	-0.0029
752.4825	-0.0022
752.6584	-0.0022
752.8344	0.0009
753.0103	-0.005
753.1862	0.0084
753.3621	-0.0051
753.5379	-0.0067
753.7138	0.004
753.8896	-0.0092
754.0654	-0.0056
754.2412	-0.0094
754.417	-0.001
754.5927	-0.0033
754.7685	-0.0084
754.9442	-0.0074
755.1199	-0.0091
755.2956	-0.0058
755.4712	-0.0041
755.6469	-0.011
755.8225	-0.0059
755.9981	-0.0063
756.1736	-0.003
756.3492	-0.0126
756.5248	0.0008
756.7003	-0.008
756.8758	-0.0111
757.0513	-0.0143
757.2267	-0.01
757.4022	-0.0069
757.5776	-0.0129
757.753	-0.0155
757.9284	-0.0047
758.1038	-0.0026
758.2791	-0.0105
758.4545	-0.0058
758.6298	-0.0058
758.8051	-0.0099
758.9803	-0.0096
759.1556	-0.0097
759.3308	-0.0079
759.506	-0.0044
759.6812	-0.0027
759.8564	-0.0084
760.0316	-0.0052
760.2067	-0.0113
760.3819	-0.0057
760.557	-0.0114
760.732	-0.0088
760.9071	-0.0164
761.0821	-0.0128
761.2572	-0.0125
761.4322	-0.0131
761.6072	-0.0103
761.7821	-0.0127
761.9571	-0.0052
762.132	-0.0063
762.3069	0.0041
762.4818	-0.0047
762.6567	-0.0091
762.8316	-0.0041
763.0064	-0.0004
763.1812	-0.0008
763.356	0.0017
763.5308	0.0012
763.7055	0.0029
763.8803	-0.0042
764.055	-0.0022
764.2297	0.0028
764.4044	-0.0049
764.579	0.0014
764.7537	0.0027
764.9283	-0.0076
765.1029	0.0013
765.2775	0.0027
765.4521	0.0026
765.6266	0.0062
765.8011	0.0069
765.9756	0.006
766.1501	0.0011
766.3246	-0.0065
766.4991	-0.0008
766.6735	-0.0028
766.8479	-0.0103
767.0223	0.0027
767.1967	-0.0051
767.371	-0.0053
767.5454	-0.001
767.7197	-0.0029
767.894	0
768.0683	-0.0055
768.2425	0.0005
768.4168	-0.0058
768.591	0.0061
768.7652	0.0036
768.9394	0.0082
769.1135	0.0051
769.2877	-0.0012
769.4618	0.0076
769.6359	0.0005
769.81	-0.0049
769.984	-0.007
770.1581	-0.0015
770.3321	-0.0005
770.5061	-0.0046
770.6801	0.0022
770.8541	-0.0009
771.028	0.0027
771.202	0.0059
771.3759	-0.0107
771.5498	0.0022
771.7236	0.0026
771.8975	-0.0026
772.0713	0.0047
772.2451	0.0113
772.4189	0.0063
772.5927	-0.008
772.7665	-0.0028
772.9402	0.0007
773.1139	0.0028
773.2876	0.0014
773.4613	-0.0048
773.635	0.0009
773.8086	0.0055
773.9822	0.0013
774.1558	-0.0029
774.3294	0.0041
774.503	0.0026
774.6765	-0.0009
774.8501	0.0033
775.0236	-0.0078
775.1971	-0.0052
775.3705	0.006
775.544	-0.0016
775.7174	-0.0057
775.8908	-0.0047
776.0642	-0.0006
776.2376	0.0022
776.4109	-0.0075
776.5843	0.0073
776.7576	0.0054
776.9309	0.0007
777.1041	-0.002
777.2774	-0.0015
777.4506	-0.0053
777.6238	0.0008
777.797	-0.0047
777.9702	-0.0052
778.1434	-0.0054
778.3165	0.0007
778.4896	-0.02
778.6627	-0.0049
778.8358	-0.0079
779.0089	-0.0006
779.1819	0.0026
779.3549	-0.0044
779.5279	0.0068
779.7009	-0.0055
779.8739	0.0003
780.0468	-0.0084
780.2197	-0.0001
780.3926	-0.0072
780.5655	0.0008
780.7384	-0.0014
780.9112	-0.0014
781.0841	-0.0016
781.2569	-0.0028
781.4297	-0.006
781.6024	-0.0041
781.7752	-0.0025
781.9479	-0.0035
782.1206	0.0037
782.2933	-0.0027
782.466	-0.0074
782.6386	0.004
782.8113	-0.0091
782.9839	-0.0067
783.1565	-0.0038
783.329	-0.0091
783.5016	-0.0044
783.6741	-0.0052
783.8466	-0.0128
784.0191	-0.0117
784.1916	-0.0034
784.3641	-0.0065
784.5365	-0.0009
784.7089	0.0052
784.8813	0.01
785.0537	0.0144
785.2261	0.003
785.3984	-0.0019
785.5707	0.0038
785.743	0.0029
785.9153	-0.0032
786.0876	0.0005
786.2598	0.0019
786.432	0.0054
786.6042	0.0052
786.7764	0.0039
786.9486	0.0015
787.1207	-0.0049
787.2928	-0.0009
787.4649	-0.0059
787.637	-0.0055
787.8091	-0.0074
787.9811	0.0064
788.1532	-0.0025
788.3252	-0.0092
788.4972	-0.0025
788.6691	-0.0064
788.8411	-0.0004
789.013	-0.002
789.1849	0.0109
789.3568	-0.008
789.5287	-0.0025
789.7005	-0.0044
789.8723	0.0053
790.0442	-0.0111
790.2159	0.0007
790.3877	-0.0107
790.5595	-0.0006
790.7312	0.002
790.9029	-0.0012
791.0746	-0.0125
791.2463	-0.0031
791.4179	-0.0052
791.5896	0.0072
791.7612	0.0019
791.9328	0.0015
792.1044	-0.0037
792.2759	0.0029
792.4474	-0.0047
792.619	-0.0032
792.7905	-0.0002
792.9619	-0.0056
793.1334	-0.0076
793.3048	0.0026
793.4762	0.0075
793.6476	-0.0152
793.819	-0.0092
793.9904	-0.0144
794.1617	-0.0189
794.333	-0.0164
794.5043	-0.0065
794.6756	0.0064
794.8469	0.0024
795.0181	-0.0051
795.1893	-0.0069
795.3605	-0.0138
795.5317	-0.0097
795.7029	-0.0044
795.874	-0.0071
796.0452	-0.0054
796.2163	-0.0115
796.3873	-0.0131
796.5584	-0.0069
796.7294	-0.0081
796.9005	-0.0102
797.0715	-0.0148
797.2425	-0.0183
797.4134	-0.0168
797.5844	-0.009
797.7553	-0.0134
797.9262	-0.0174
798.0971	-0.015
798.2679	-0.0162
798.4388	-0.0154
798.6096	-0.0022
798.7804	-0.0068
798.9512	-0.0099
799.122	-0.006
799.2927	-0.0094
799.4635	-0.006
799.6342	-0.005
799.8049	-0.0103
799.9755	-0.0101
800.1462	-0.0224
800.3168	-0.0107
800.4874	-0.0156
800.658	-0.0153
800.8286	-0.0197
800.9991	-0.0233
801.1696	-0.016
801.3402	-0.0211
801.5106	-0.0171
801.6811	-0.0274
801.8516	-0.014
802.022	-0.025
802.1924	-0.0193
802.3628	-0.025
802.5332	-0.0058
802.7035	-0.0155
802.8739	-0.0175
803.0442	-0.014
803.2145	-0.0054
803.3847	-0.0169
803.555	-0.0144
803.7252	-0.0148
803.8954	-0.011
804.0656	-0.001
804.2358	-0.0141
804.4059	-0.0055
804.5761	-0.008
804.7462	-0.0083
804.9163	-0.0137
805.0864	-0.0071
805.2564	-0.0148
805.4264	-0.0096
805.5965	-0.0084
805.7665	-0.0063
805.9364	-0.0065
806.1064	-0.015
806.2763	-0.0153
806.4462	-0.0077
806.6161	-0.009
806.786	-0.006
806.9559	-0.0143
807.1257	-0.009
807.2955	-0.0059
807.4653	-0.0141
807.6351	-0.0099
807.8048	-0.0098
807.9746	-0.0058
808.1443	0.0036
808.314	-0.0018
808.4837	0.0022
808.6533	0.0055
808.8229	-0.0103
808.9926	-0.0055
809.1622	-0.0053
809.3317	0.0119
809.5013	0.0075
809.6708	0.0097
809.8403	-0.005
810.0098	0.001
810.1793	-0.0029
810.3488	0.009
810.5182	-0.0123
810.6876	0.0004
810.857	-0.0125
811.0264	-0.0175
811.1958	0.007
811.3651	-0.0082
811.5344	0.0007
811.7037	-0.0096
811.873	-0.0104
812.0422	-0.0033
812.2115	-0.0081
812.3807	-0.0044
812.5499	-0.0002
812.7191	-0.019
812.8882	-0.0021
813.0574	-0.0096
813.2265	0.0006
813.3956	-0.0003
813.5646	-0.0113
813.7337	-0.0033
813.9027	0.0045
814.0718	-0.0031
814.2407	0.0093
814.4097	-0.0004
814.5787	-0.0024
814.7476	-0.0065
814.9165	-0.0022
815.0854	-0.013
815.2543	-0
815.4232	0.0013
815.592	-0.0088
815.7608	-0.001
815.9296	0.0039
816.0984	-0.0027
816.2671	0.0097
816.4359	-0.0002
816.6046	0.0013
816.7733	-0.0007
816.942	0.0011
817.1106	0.0085
817.2793	0.0062
817.4479	-0.015
817.6165	-0.0136
817.785	-0.0104
817.9536	-0.0032
818.1221	-0.0033
818.2906	-0.0217
818.4591	-0.0115
818.6276	-0.0008
818.7961	-0.0003
818.9645	-0.0206
819.1329	-0.002
819.3013	-0.0026
819.4697	-0.007
819.638	-0.0063
819.8064	-0.001
819.9747	0.0035
820.143	-0.0028
820.3113	-0.0035
820.4795	0.0181
820.6477	-0.0133
820.816	-0.0087
820.9842	-0.0122
821.1523	-0.0288
821.3205	-0.0047
821.4886	0.0027
821.6567	-0.003
821.8248	-0.0181
821.9929	-0.0006
822.1609	0.0053
822.329	-0.0033
822.497	-0.0079
822.665	-0.0222
822.833	-0.0317
823.0009	-0.0134
823.1688	-0.0251
823.3367	-0.0151
823.5046	-0.0185
823.6725	-0.0168
823.8404	0.0058
824.0082	-0.0213
824.176	-0.0078
824.3438	-0.0046
824.5116	-0.0057
824.6793	-0.0127
824.847	-0.0096
825.0147	-0.0005
825.1824	-0.0249
825.3501	-0.0053
825.5177	-0.0143
825.6854	0.0028
825.853	-0.0146
826.0206	-0.0016
826.1881	-0.0092
826.3557	-0.0218
826.5232	-0.002
826.6907	0.006
826.8582	0.0029
827.0257	-0.0114
827.1931	0.02
827.3605	0.003
827.528	-0.0052
827.6953	-0.0134
827.8627	-0.0136
828.03	-0.0015
828.1974	0.0088
828.3647	0.0078
828.532	-0.0079
828.6992	-0.0082
828.8665	-0.0221
829.0337	-0.0172
829.2009	-0.0268
829.3681	-0.0184
829.5352	-0.0075
829.7024	-0.0096
829.8695	-0.0173
830.0366	-0.0213
830.2037	-0.0074
830.3707	-0.0146
830.5378	-0.0106
830.7048	-0.0208
830.8718	-0.006
831.0388	-0.0053
831.2057	0.0011
831.3727	-0.0229
831.5396	0.0051
831.7065	0.012
831.8734	0.0021
832.0402	-0.0161
832.2071	-0.0111
832.3739	-0.0066
832.5407	0.0033
832.7075	-0.0039
832.8742	0.0115
833.041	0.0159
833.2077	-0.0282
833.3744	-0.0037
833.541	-0.0013
833.7077	-0.0001
833.8743	-0.0018
834.0409	0.0012
834.2075	-0.0073
834.3741	-0.0044
834.5407	-0.0063
834.7072	0.0001
834.8737	-0.012
835.0402	-0.0176
835.2067	-0.004
835.3731	-0.0174
835.5395	-0.007
835.706	-0.0266
835.8723	-0.0162
836.0387	-0.0086
836.2051	-0.0212
836.3714	0.0124
836.5377	-0.0075
836.704	-0.0023
836.8703	-0.0191
837.0365	-0.0003
837.2027	-0.0113
837.3689	-0.0291
837.5351	-0.0039
837.7013	-0.0069
837.8674	0.0101
838.0335	0.0025
838.1997	-0.0076
838.3657	0.0107
838.5318	0.0112
838.6978	-0.014
838.8639	-0.0022
839.0299	-0.0043
839.1958	-0.0043
839.3618	-0.0091
839.5277	-0.0035
839.6937	-0.0136
839.8596	-0.0113
840.0254	0.0136
840.1913	-0.0147
840.3571	0.0412
840.523	-0.0066
840.6888	0.0002
840.8545	-0.0124
841.0203	-0.0072
841.186	-0.0167
841.3517	-0.0197
841.5174	-0.0252
841.6831	0.0089
841.8488	0.0046
842.0144	-0.0035
842.18	-0.0087
842.3456	0.0065
842.5112	0.0173
842.6767	-0.0037
842.8422	0.0145
843.0077	0.0036
843.1732	-0.0209
843.3387	-0.0107
843.5042	-0.0137
843.6696	-0.0005
843.835	-0.0368
844.0004	0.0125
844.1657	0.004
844.3311	0.0112
844.4964	0.001
844.6617	-0.0161
844.827	-0.0253
844.9923	0.0024
845.1575	0.0212
845.3227	-0.01
845.4879	0.0205
845.6531	0.0046
845.8183	-0.0273
845.9834	0.0028
846.1485	-0.0056
846.3136	-0.0422
846.4787	-0.0208
846.6438	-0.0164
846.8088	0.0188
846.9738	0.01
847.1388	-0.0061
847.3038	-0.0127
847.4687	0.0142
847.6337	0.0272
847.7986	0.028
847.9635	-0.0271
848.1284	-0.027
848.2932	0.0462
848.458	0.0257
848.6228	0.0089
848.7876	-0.0252
848.9524	0.0267
849.1172	0.0055
849.2819	0.0013
849.4466	-0.0268
849.6113	-0.0104
849.7759	-0.0045
849.9406	-0.0118
850.1052	0.0175
850.2698	0.0169
850.4344	0.0199
850.599	-0.0153
850.7635	0.0129
850.928	-0.0037
851.0925	0.0298
851.257	0.0328
851.4215	0.0114
851.5859	0.0278
851.7503	0.0371
851.9147	0.0216
852.0791	0.0234
852.2434	-0.0248
852.4078	0.0442
852.5721	-0.0351
852.7364	-0.0974
852.9007	0.0113
853.0649	-0.007
853.2291	-0.0121
853.3934	-0.0169
853.5575	-0.0074
853.7217	0.034
853.8859	0.0012
854.05	0.0261
854.2141	-0.0203
854.3782	0.0217
854.5423	0.0194
854.7063	-0.0067
854.8703	0.0014
855.0343	0.0071
855.1983	-0.021
855.3623	-0.0304
855.5262	0.0444
855.6901	0.009
855.854	-0.0067
856.0179	0.0954
856.1818	-0.013
856.3456	-0.0475
856.5094	-0.0045
856.6732	-0.0555
856.837	-0.0505
857.0008	-0.0062
857.1645	-0.0246
857.3282	-0.0362
857.4919	-0.0128
857.6556	0.0945
857.8192	0.0151
857.9828	0.0491
858.1465	0.0758
858.31	0.0257
858.4736	-0.0961
858.6372	0.0159
858.8007	-0.0227
858.9642	-0.0605
859.1277	0.0415
859.2911	0.0207
859.4546	-0.0005
859.618	-0.0368
859.7814	0.0337
859.9448	-0.1249
860.1081	-0.0851
860.2715	0.1257
860.4348	-0.0481
860.5981	-0.0447
860.7614	-0.0414
860.9246	0.0359
861.0879	-0.003
861.2511	0.0696
861.4143	-0.1147
861.5774	0.0164
861.7406	0.0319
861.9037	-0.1362
862.0668	-0.0194
862.2299	-0.054
862.393	0.0099
862.556	0.0865
862.7191	-0.0279
862.8821	0.0166
863.0451	0.0606
863.208	-0.0638
863.371	0.0249
863.5339	-0.0232
863.6968	-0.0947
863.8597	0.0994
864.0225	-0.2588
864.1854	-0.0513
864.3482	-0.2793
864.511	-0.0461
864.6737	0.0144
864.8365	0.1203
864.9992	-0.1723
865.1619	-0.1162
865.3246	-0.1963
865.4873	0.2569
865.65	-0.0489
865.8126	0.1821
865.9752	-0.0698
866.1378	-0.0735
866.3004	0.2901
866.4629	-0.1903
866.6254	0.0813
866.7879	0.1653
866.9504	-0.2044
867.1129	-0.0609
867.2753	0.223
867.4377	-0.0395
867.6001	-0.1777
867.7625	0.1404
867.9249	-0.0709
868.0872	-0.1163
868.2495	-0.232
868.4118	-0.082
868.5741	-0.2129
868.7363	0.1643
868.8986	-0.0701
869.0608	0.029
869.223	0.0844
869.3851	-0.0065
869.5473	-0.0669
869.7094	0.2374
869.8715	-0.0329
870.0336	0.0666
870.1957	-0.1793
870.3577	0.1359
870.5197	-0.5592
870.6817	-0.0083
870.8437	-0.1651
871.0057	-0.321
871.1676	0.0264
871.3295	-0.1594
871.4914	0.0799
871.6533	-0.0716
871.8151	-0.1566
871.977	0.0621
872.1388	0.1312
872.3006	-0.0884
872.4623	-0.0723
872.6241	-0.0136
872.7858	-0.043
872.9475	-0.2216
873.1092	-0.1713
873.2709	0.1384
873.4325	-0.3353
873.5941	-0.1007
873.7557	-0.0202
873.9173	0.3158
874.0789	-0.0609
874.2404	0.1264
874.4019	0.0291
874.5634	-0.2229
874.7249	-0.1044
874.8863	-0.2934
875.0478	0.0133
875.2092	-0.202
875.3706	0.0408
875.5319	-0.3259
875.6933	-0.1328
875.8546	-0.4422
876.0159	0.0944
876.1772	-0.1585
876.3385	-0.257
876.4997	-0.31
876.6609	-0.0668
876.8221	-0.3598
876.9833	-0.3323
877.1445	-0.083
877.3056	0.355
877.4667	-0.8855
877.6278	0.1167
877.7889	-0.0276
877.9499	-0.4546
878.111	0.033
878.272	0.1028
878.433	0.0036
878.5939	0.0523
878.7549	-0.4435
878.9158	0.1054
879.0767	0.2539
879.2376	0.2344
879.3984	-0.2322
879.5593	-0
879.7201	-0
879.8809	-0.002
880.0417	0.1623
880.2024	0.3323
880.3632	-0.1999
880.5239	-0
880.6846	0.0122
880.8452	0.1054
881.0059	0.0789
881.1665	-0
881.3271	-0.1613
881.4877	-0.2092
881.6483	-0
881.8088	0.4297
881.9693	0.0923
882.1298	0.0923
882.2903	0.0923
