Data from MonoPyChalIsomerACN10uM450nmA_Absorbance_13-11-24-491.txt Node
Date: Tue Jul 09 13:11:24 BST 2024
User: LASERRRRR
Spectrometer: FLMT03099
Trigger mode: 0
Integration Time (sec): 2.000000E-1
Scans to average: 1
Electric dark correction enabled: true
Nonlinearity correction enabled: false
Boxcar width: 0
XAxis mode: Wavelengths
Number of Pixels in Spectrum: 3648
>>>>>Begin Spectral Data<<<<<
179.3399	0.0534
179.5586	0.0534
179.7771	0.0534
179.9957	1.8212
180.2143	-0.1826
180.4329	0.6339
180.6514	-0.0889
180.8699	-0
181.0885	-0
181.307	-0
181.5255	-0
181.744	-0.0778
181.9625	-0
182.181	-0
182.3994	0.322
182.6179	-0.2735
182.8363	-0.4708
183.0547	0.3441
183.2732	0.1701
183.4916	0.0277
183.71	0.0373
183.9284	-0.0184
184.1467	0.0339
184.3651	0.0364
184.5835	0.2198
184.8018	-0.0027
185.0201	0.1267
185.2385	0.0576
185.4568	-0.1509
185.6751	0.1354
185.8934	0.0365
186.1117	0.0417
186.3299	-0.0924
186.5482	0.0305
186.7664	0.0269
186.9847	0.0904
187.2029	0.0939
187.4211	0.0502
187.6393	0.0155
187.8575	0.0937
188.0757	-0.04
188.2939	0.1147
188.512	-0.0406
188.7302	-0.0494
188.9483	0.0304
189.1665	0.1939
189.3846	0.1297
189.6027	0.1221
189.8208	0.2856
190.0389	0.2626
190.257	0.1311
190.475	0.3101
190.6931	0.1755
190.9111	0.3605
191.1292	0.3081
191.3472	0.2747
191.5652	0.259
191.7832	0.3214
192.0012	0.3188
192.2192	0.3836
192.4371	0.4583
192.6551	0.4064
192.873	0.4728
193.091	0.5199
193.3089	0.5374
193.5268	0.5713
193.7447	0.5172
193.9626	0.5548
194.1805	0.4834
194.3984	0.5619
194.6162	0.4838
194.8341	0.5936
195.0519	0.6167
195.2697	0.6723
195.4875	0.5507
195.7054	0.5561
195.9231	0.605
196.1409	0.6407
196.3587	0.6069
196.5765	0.7554
196.7942	0.8659
197.012	0.6768
197.2297	0.7235
197.4474	0.8492
197.6651	0.7146
197.8828	0.7704
198.1005	0.7064
198.3182	0.7808
198.5358	0.7168
198.7535	0.7885
198.9711	0.8172
199.1888	0.7657
199.4064	0.7761
199.624	0.716
199.8416	0.7761
200.0592	0.7632
200.2767	0.794
200.4943	0.8577
200.7119	0.9326
200.9294	0.9048
201.1469	0.8925
201.3645	0.7528
201.582	0.9321
201.7995	0.824
202.017	1.0116
202.2344	0.8127
202.4519	1.012
202.6694	0.8354
202.8868	0.8541
203.1042	0.9513
203.3217	0.95
203.5391	1.0216
203.7565	0.9051
203.9739	0.9261
204.1913	0.8122
204.4086	0.981
204.626	1.0193
204.8433	0.9536
205.0607	0.883
205.278	0.8637
205.4953	1.0916
205.7126	0.8863
205.9299	0.9796
206.1472	0.9469
206.3644	1.0665
206.5817	0.9903
206.7989	1.0466
207.0162	1.2387
207.2334	0.9309
207.4506	0.9725
207.6678	1.0404
207.885	1.0928
208.1022	1.1232
208.3194	1.07
208.5365	1.0551
208.7537	1.0581
208.9708	1.0875
209.1879	1.094
209.405	1.0808
209.6222	0.9759
209.8392	1.118
210.0563	1.0201
210.2734	1.1034
210.4905	1.0837
210.7075	1.0451
210.9245	0.9968
211.1416	1.1536
211.3586	1.1096
211.5756	1.0453
211.7926	1.0764
212.0096	1.015
212.2265	1.0309
212.4435	1.0358
212.6604	1.0451
212.8774	1.0268
213.0943	1.0407
213.3112	0.9386
213.5281	1.0303
213.745	0.944
213.9619	0.9763
214.1788	0.943
214.3956	0.9592
214.6125	0.9612
214.8293	0.8878
215.0461	0.8546
215.2629	0.9024
215.4798	0.888
215.6965	0.8439
215.9133	0.8314
216.1301	0.7828
216.3469	0.7871
216.5636	0.8067
216.7803	0.7754
216.9971	0.7558
217.2138	0.7177
217.4305	0.7138
217.6472	0.6684
217.8639	0.6415
218.0805	0.6207
218.2972	0.5882
218.5138	0.5382
218.7305	0.5158
218.9471	0.4783
219.1637	0.4557
219.3803	0.4336
219.5969	0.4078
219.8135	0.3699
220.0301	0.3657
220.2466	0.3366
220.4632	0.3316
220.6797	0.3206
220.8962	0.3024
221.1127	0.3095
221.3292	0.3018
221.5457	0.2923
221.7622	0.2803
221.9787	0.2804
222.1951	0.2865
222.4116	0.278
222.628	0.2701
222.8444	0.2634
223.0608	0.2626
223.2772	0.2723
223.4936	0.2654
223.71	0.2703
223.9264	0.2726
224.1427	0.2634
224.3591	0.2649
224.5754	0.2593
224.7917	0.266
225.008	0.2763
225.2243	0.2755
225.4406	0.2888
225.6569	0.28
225.8732	0.2943
226.0894	0.2619
226.3057	0.2907
226.5219	0.2838
226.7381	0.2951
226.9543	0.2848
227.1705	0.2804
227.3867	0.2941
227.6029	0.2919
227.8191	0.3062
228.0352	0.3082
228.2513	0.3107
228.4675	0.305
228.6836	0.3153
228.8997	0.3135
229.1158	0.3096
229.3319	0.314
229.548	0.3278
229.764	0.3272
229.9801	0.3226
230.1961	0.3345
230.4121	0.3318
230.6282	0.339
230.8442	0.3352
231.0602	0.3502
231.2761	0.3332
231.4921	0.3499
231.7081	0.3563
231.924	0.3649
232.14	0.365
232.3559	0.3555
232.5718	0.3558
232.7877	0.3537
233.0036	0.3719
233.2195	0.3634
233.4353	0.3645
233.6512	0.3774
233.867	0.3746
234.0829	0.3827
234.2987	0.3867
234.5145	0.3747
234.7303	0.3886
234.9461	0.3992
235.1619	0.3923
235.3776	0.3954
235.5934	0.3931
235.8091	0.396
236.0249	0.3911
236.2406	0.3863
236.4563	0.3779
236.672	0.4016
236.8877	0.403
237.1034	0.4029
237.319	0.414
237.5347	0.4025
237.7503	0.4072
237.966	0.4076
238.1816	0.4063
238.3972	0.4034
238.6128	0.4033
238.8284	0.4076
239.0439	0.4049
239.2595	0.4318
239.475	0.4251
239.6906	0.4233
239.9061	0.4173
240.1216	0.4086
240.3371	0.4312
240.5526	0.4299
240.7681	0.4104
240.9836	0.4144
241.199	0.4133
241.4145	0.3995
241.6299	0.4098
241.8453	0.4088
242.0607	0.3822
242.2761	0.3995
242.4915	0.3912
242.7069	0.3866
242.9223	0.383
243.1376	0.3728
243.353	0.3669
243.5683	0.3628
243.7836	0.343
243.9989	0.3432
244.2142	0.3348
244.4295	0.3285
244.6448	0.3327
244.86	0.3222
245.0753	0.3036
245.2905	0.3122
245.5057	0.3055
245.721	0.3021
245.9362	0.2869
246.1514	0.2897
246.3665	0.2885
246.5817	0.2813
246.7969	0.2722
247.012	0.278
247.2271	0.2641
247.4423	0.2682
247.6574	0.2601
247.8725	0.2651
248.0876	0.2577
248.3026	0.2543
248.5177	0.2517
248.7328	0.2315
248.9478	0.2443
249.1628	0.2363
249.3779	0.2328
249.5929	0.2216
249.8079	0.2323
250.0228	0.2294
250.2378	0.2331
250.4528	0.2188
250.6677	0.226
250.8827	0.2172
251.0976	0.2215
251.3125	0.2188
251.5274	0.2052
251.7423	0.2127
251.9572	0.21
252.172	0.2073
252.3869	0.2076
252.6017	0.2134
252.8166	0.2048
253.0314	0.2048
253.2462	0.207
253.461	0.2084
253.6758	0.1955
253.8906	0.2028
254.1053	0.2026
254.3201	0.2094
254.5348	0.2055
254.7496	0.2056
254.9643	0.1971
255.179	0.1993
255.3937	0.2022
255.6083	0.2052
255.823	0.194
256.0377	0.1929
256.2523	0.1932
256.467	0.2017
256.6816	0.1964
256.8962	0.1987
257.1108	0.2
257.3254	0.1988
257.54	0.1856
257.7545	0.2003
257.9691	0.1967
258.1836	0.1974
258.3981	0.1983
258.6127	0.2019
258.8272	0.1875
259.0417	0.1955
259.2561	0.196
259.4706	0.1944
259.6851	0.2001
259.8995	0.1944
260.114	0.1921
260.3284	0.1993
260.5428	0.1923
260.7572	0.2042
260.9716	0.1974
261.186	0.2019
261.4003	0.2045
261.6147	0.1999
261.829	0.2064
262.0433	0.1962
262.2577	0.1957
262.472	0.1934
262.6863	0.1925
262.9005	0.2014
263.1148	0.1928
263.3291	0.1904
263.5433	0.1932
263.7576	0.1876
263.9718	0.1865
264.186	0.1924
264.4002	0.1852
264.6144	0.1924
264.8286	0.1837
265.0427	0.1824
265.2569	0.1864
265.471	0.1819
265.6851	0.1757
265.8993	0.1767
266.1134	0.1709
266.3275	0.18
266.5415	0.1759
266.7556	0.1864
266.9697	0.182
267.1837	0.1821
267.3978	0.1867
267.6118	0.1832
267.8258	0.1903
268.0398	0.1968
268.2538	0.1948
268.4677	0.1939
268.6817	0.1901
268.8957	0.1972
269.1096	0.1868
269.3235	0.181
269.5374	0.1812
269.7514	0.1668
269.9652	0.1721
270.1791	0.1586
270.393	0.1593
270.6068	0.151
270.8207	0.1594
271.0345	0.1642
271.2483	0.1497
271.4622	0.1557
271.676	0.1465
271.8897	0.1413
272.1035	0.1362
272.3173	0.1455
272.531	0.1457
272.7448	0.1456
272.9585	0.1476
273.1722	0.1444
273.3859	0.1425
273.5996	0.1391
273.8133	0.1531
274.0269	0.1484
274.2406	0.1412
274.4542	0.1433
274.6679	0.1402
274.8815	0.147
275.0951	0.1436
275.3087	0.1356
275.5223	0.1393
275.7358	0.1386
275.9494	0.1513
276.1629	0.1486
276.3765	0.1466
276.59	0.1378
276.8035	0.1485
277.017	0.1449
277.2305	0.1509
277.444	0.1466
277.6574	0.1443
277.8709	0.1574
278.0843	0.1573
278.2978	0.1497
278.5112	0.1474
278.7246	0.1415
278.938	0.1463
279.1513	0.1456
279.3647	0.1535
279.5781	0.1428
279.7914	0.1537
280.0047	0.1484
280.2181	0.1534
280.4314	0.15
280.6447	0.1468
280.8579	0.1517
281.0712	0.1553
281.2845	0.1495
281.4977	0.1542
281.711	0.1545
281.9242	0.1531
282.1374	0.1504
282.3506	0.1471
282.5638	0.1523
282.7769	0.155
282.9901	0.1451
283.2033	0.1624
283.4164	0.1582
283.6295	0.1647
283.8426	0.1563
284.0557	0.1506
284.2688	0.1651
284.4819	0.1525
284.695	0.1591
284.908	0.1619
285.1211	0.1681
285.3341	0.1592
285.5471	0.1605
285.7601	0.1541
285.9731	0.1554
286.1861	0.1612
286.3991	0.1581
286.612	0.1617
286.825	0.1653
287.0379	0.1569
287.2508	0.1586
287.4637	0.1635
287.6766	0.1485
287.8895	0.1606
288.1024	0.164
288.3152	0.1571
288.5281	0.1573
288.7409	0.1562
288.9538	0.1585
289.1666	0.1616
289.3794	0.1522
289.5922	0.163
289.8049	0.1548
290.0177	0.1635
290.2304	0.1558
290.4432	0.1656
290.6559	0.1553
290.8686	0.1549
291.0813	0.164
291.294	0.1607
291.5067	0.1606
291.7194	0.1639
291.932	0.1612
292.1447	0.1596
292.3573	0.1604
292.5699	0.1644
292.7825	0.1673
292.9951	0.1657
293.2077	0.1569
293.4203	0.1522
293.6328	0.164
293.8454	0.1549
294.0579	0.1585
294.2704	0.1654
294.4829	0.1592
294.6954	0.1602
294.9079	0.1588
295.1204	0.1591
295.3328	0.1564
295.5453	0.1575
295.7577	0.1566
295.9701	0.1548
296.1825	0.1629
296.3949	0.1581
296.6073	0.1616
296.8197	0.1564
297.0321	0.1598
297.2444	0.1537
297.4567	0.1456
297.6691	0.1545
297.8814	0.1572
298.0937	0.1572
298.306	0.1624
298.5182	0.1479
298.7305	0.1615
298.9428	0.1573
299.155	0.1599
299.3672	0.1587
299.5794	0.1517
299.7916	0.1564
300.0038	0.1582
300.216	0.162
300.4282	0.1492
300.6403	0.1579
300.8525	0.1608
301.0646	0.1552
301.2767	0.1549
301.4888	0.1551
301.7009	0.1611
301.913	0.1626
302.125	0.158
302.3371	0.1605
302.5491	0.1563
302.7612	0.1544
302.9732	0.1657
303.1852	0.1518
303.3972	0.1576
303.6092	0.1551
303.8211	0.1572
304.0331	0.1547
304.245	0.1562
304.457	0.1537
304.6689	0.1522
304.8808	0.1522
305.0927	0.1449
305.3046	0.1508
305.5164	0.1513
305.7283	0.1455
305.9401	0.1503
306.152	0.1522
306.3638	0.1549
306.5756	0.1428
306.7874	0.1389
306.9992	0.1395
307.2109	0.1356
307.4227	0.1349
307.6344	0.1337
307.8462	0.1411
308.0579	0.1292
308.2696	0.1338
308.4813	0.1334
308.693	0.1277
308.9046	0.1215
309.1163	0.1238
309.328	0.125
309.5396	0.1205
309.7512	0.1215
309.9628	0.1203
310.1744	0.1233
310.386	0.1146
310.5976	0.1144
310.8091	0.1126
311.0207	0.1198
311.2322	0.1169
311.4437	0.1206
311.6552	0.1104
311.8667	0.1081
312.0782	0.1121
312.2897	0.1007
312.5012	0.1075
312.7126	0.0968
312.924	0.0981
313.1355	0.1022
313.3469	0.1055
313.5583	0.1095
313.7696	0.106
313.981	0.1037
314.1924	0.1024
314.4037	0.1005
314.6151	0.0943
314.8264	0.1019
315.0377	0.0997
315.249	0.1045
315.4603	0.1034
315.6716	0.1017
315.8828	0.101
316.0941	0.0966
316.3053	0.0947
316.5165	0.0918
316.7277	0.0932
316.9389	0.0933
317.1501	0.0926
317.3613	0.0988
317.5724	0.0989
317.7836	0.0927
317.9947	0.0944
318.2058	0.097
318.417	0.091
318.6281	0.0962
318.8391	0.0943
319.0502	0.0939
319.2613	0.0944
319.4723	0.1005
319.6834	0.0961
319.8944	0.1014
320.1054	0.0939
320.3164	0.0982
320.5274	0.0938
320.7383	0.0935
320.9493	0.1
321.1602	0.0983
321.3712	0.1033
321.5821	0.0921
321.793	0.0919
322.0039	0.0971
322.2148	0.0912
322.4257	0.093
322.6365	0.0981
322.8474	0.0971
323.0582	0.1068
323.269	0.0992
323.4798	0.0975
323.6906	0.1054
323.9014	0.0946
324.1122	0.1033
324.3229	0.0983
324.5337	0.093
324.7444	0.0959
324.9551	0.1033
325.1658	0.101
325.3765	0.0974
325.5872	0.1006
325.7979	0.1053
326.0085	0.1072
326.2192	0.1045
326.4298	0.1098
326.6404	0.1018
326.851	0.0941
327.0616	0.1014
327.2722	0.1023
327.4828	0.098
327.6933	0.1014
327.9039	0.1111
328.1144	0.0993
328.3249	0.1072
328.5354	0.1065
328.7459	0.1041
328.9564	0.1043
329.1669	0.1004
329.3773	0.0995
329.5878	0.1112
329.7982	0.107
330.0086	0.1012
330.219	0.1017
330.4294	0.104
330.6398	0.1088
330.8502	0.1105
331.0605	0.109
331.2708	0.1035
331.4812	0.1001
331.6915	0.104
331.9018	0.101
332.1121	0.111
332.3224	0.0998
332.5326	0.098
332.7429	0.1046
332.9531	0.1071
333.1633	0.1114
333.3735	0.1079
333.5837	0.1005
333.7939	0.1076
334.0041	0.1035
334.2143	0.1007
334.4244	0.1015
334.6346	0.1
334.8447	0.1068
335.0548	0.1072
335.2649	0.0982
335.475	0.0978
335.685	0.1172
335.8951	0.1063
336.1051	0.0953
336.3152	0.1108
336.5252	0.1015
336.7352	0.1035
336.9452	0.1046
337.1552	0.1064
337.3652	0.1055
337.5751	0.1177
337.7851	0.1032
337.995	0.103
338.2049	0.1105
338.4148	0.1159
338.6247	0.1115
338.8346	0.1097
339.0445	0.1097
339.2543	0.1143
339.4642	0.107
339.674	0.1102
339.8838	0.1129
340.0936	0.1183
340.3034	0.1165
340.5132	0.1174
340.7229	0.1209
340.9327	0.1161
341.1424	0.1173
341.3522	0.117
341.5619	0.1294
341.7716	0.122
341.9813	0.1274
342.1909	0.1214
342.4006	0.1207
342.6102	0.1223
342.8199	0.1232
343.0295	0.1245
343.2391	0.1242
343.4487	0.1202
343.6583	0.1263
343.8679	0.1189
344.0774	0.1287
344.287	0.1364
344.4965	0.1192
344.706	0.1308
344.9155	0.1258
345.125	0.1378
345.3345	0.1285
345.544	0.1197
345.7534	0.1239
345.9629	0.1214
346.1723	0.1295
346.3817	0.1334
346.5911	0.1309
346.8005	0.1283
347.0099	0.1263
347.2193	0.1354
347.4286	0.1295
347.638	0.1314
347.8473	0.1244
348.0566	0.1414
348.2659	0.1275
348.4752	0.1367
348.6845	0.1287
348.8937	0.1416
349.103	0.1277
349.3122	0.1352
349.5214	0.1411
349.7306	0.1376
349.9398	0.1334
350.149	0.1355
350.3582	0.1296
350.5674	0.1443
350.7765	0.141
350.9856	0.1333
351.1948	0.1336
351.4039	0.1369
351.613	0.1291
351.822	0.1396
352.0311	0.1369
352.2402	0.1451
352.4492	0.1459
352.6582	0.1434
352.8672	0.1426
353.0762	0.1498
353.2852	0.1475
353.4942	0.1548
353.7032	0.1463
353.9121	0.1499
354.1211	0.145
354.33	0.1473
354.5389	0.1478
354.7478	0.1501
354.9567	0.1475
355.1655	0.1539
355.3744	0.1591
355.5833	0.1499
355.7921	0.1475
356.0009	0.1569
356.2097	0.1518
356.4185	0.148
356.6273	0.1603
356.8361	0.1474
357.0448	0.1602
357.2536	0.1543
357.4623	0.1621
357.671	0.1641
357.8797	0.1592
358.0884	0.1579
358.2971	0.161
358.5057	0.1712
358.7144	0.1578
358.923	0.1705
359.1316	0.1745
359.3402	0.168
359.5488	0.1597
359.7574	0.175
359.966	0.1786
360.1746	0.1671
360.3831	0.1791
360.5916	0.1834
360.8002	0.1719
361.0087	0.1796
361.2172	0.1786
361.4256	0.1726
361.6341	0.1757
361.8426	0.1814
362.051	0.1713
362.2594	0.1806
362.4678	0.1885
362.6762	0.1765
362.8846	0.1848
363.093	0.1849
363.3014	0.1831
363.5097	0.1865
363.718	0.1931
363.9264	0.1902
364.1347	0.1936
364.343	0.1781
364.5513	0.1898
364.7595	0.1871
364.9678	0.1967
365.176	0.1876
365.3842	0.1821
365.5925	0.1979
365.8007	0.196
366.0089	0.2025
366.217	0.1954
366.4252	0.2069
366.6333	0.1949
366.8415	0.1967
367.0496	0.2018
367.2577	0.2103
367.4658	0.2008
367.6739	0.2041
367.882	0.1968
368.09	0.2038
368.2981	0.2205
368.5061	0.2017
368.7141	0.2012
368.9221	0.1992
369.1301	0.2126
369.3381	0.2057
369.5461	0.2143
369.754	0.2037
369.962	0.2061
370.1699	0.2157
370.3778	0.2028
370.5857	0.2076
370.7936	0.2066
371.0015	0.2105
371.2093	0.2095
371.4172	0.2151
371.625	0.2142
371.8328	0.2196
372.0406	0.224
372.2484	0.2076
372.4562	0.213
372.664	0.22
372.8717	0.2187
373.0795	0.2104
373.2872	0.2268
373.4949	0.2088
373.7026	0.2143
373.9103	0.2192
374.118	0.2287
374.3256	0.2173
374.5333	0.2157
374.7409	0.2212
374.9485	0.2169
375.1561	0.2287
375.3637	0.2223
375.5713	0.2343
375.7789	0.2181
375.9864	0.2347
376.194	0.2307
376.4015	0.2225
376.609	0.2319
376.8165	0.218
377.024	0.2186
377.2315	0.2354
377.4389	0.2311
377.6464	0.2267
377.8538	0.231
378.0612	0.236
378.2686	0.2295
378.476	0.2308
378.6834	0.2413
378.8908	0.2445
379.0981	0.2358
379.3055	0.229
379.5128	0.2337
379.7201	0.24
379.9274	0.246
380.1347	0.2468
380.342	0.2375
380.5492	0.2436
380.7565	0.2365
380.9637	0.2543
381.1709	0.2404
381.3781	0.235
381.5853	0.2477
381.7925	0.24
381.9997	0.2365
382.2068	0.2384
382.4139	0.2471
382.6211	0.244
382.8282	0.2492
383.0353	0.2401
383.2424	0.2497
383.4494	0.2597
383.6565	0.2467
383.8635	0.2588
384.0706	0.2453
384.2776	0.2451
384.4846	0.2488
384.6916	0.2566
384.8986	0.2506
385.1055	0.2491
385.3125	0.256
385.5194	0.2515
385.7263	0.2597
385.9333	0.2516
386.1402	0.2556
386.347	0.2657
386.5539	0.2472
386.7608	0.2425
386.9676	0.2519
387.1744	0.2413
387.3813	0.249
387.5881	0.2409
387.7948	0.2486
388.0016	0.2421
388.2084	0.25
388.4151	0.2317
388.6219	0.2458
388.8286	0.2518
389.0353	0.23
389.242	0.2378
389.4487	0.2366
389.6553	0.2314
389.862	0.2424
390.0686	0.2365
390.2753	0.2379
390.4819	0.2318
390.6885	0.2335
390.8951	0.2442
391.1016	0.2467
391.3082	0.2426
391.5147	0.2404
391.7213	0.232
391.9278	0.2292
392.1343	0.2274
392.3408	0.2259
392.5473	0.2263
392.7537	0.2274
392.9602	0.2185
393.1666	0.2275
393.373	0.2163
393.5794	0.2275
393.7858	0.2195
393.9922	0.2168
394.1986	0.2152
394.4049	0.2287
394.6113	0.2202
394.8176	0.2069
395.0239	0.2121
395.2302	0.2163
395.4365	0.2156
395.6428	0.2173
395.8491	0.2206
396.0553	0.2217
396.2615	0.2141
396.4678	0.2189
396.674	0.208
396.8802	0.2066
397.0863	0.2024
397.2925	0.2067
397.4987	0.2099
397.7048	0.2028
397.9109	0.2093
398.117	0.2111
398.3231	0.2078
398.5292	0.2018
398.7353	0.204
398.9413	0.2119
399.1474	0.2109
399.3534	0.1931
399.5594	0.2085
399.7654	0.2062
399.9714	0.1976
400.1774	0.2054
400.3833	0.2138
400.5893	0.2085
400.7952	0.1974
401.0011	0.2167
401.207	0.2036
401.4129	0.1882
401.6188	0.1949
401.8247	0.1951
402.0305	0.1917
402.2364	0.2042
402.4422	0.2058
402.648	0.2083
402.8538	0.1987
403.0596	0.2026
403.2654	0.2031
403.4711	0.2004
403.6768	0.216
403.8826	0.2088
404.0883	0.2041
404.294	0.2106
404.4997	0.2061
404.7054	0.2078
404.911	0.2092
405.1167	0.2012
405.3223	0.2156
405.5279	0.2098
405.7335	0.2088
405.9391	0.2074
406.1447	0.1955
406.3502	0.2038
406.5558	0.1986
406.7613	0.1943
406.9668	0.1974
407.1724	0.1999
407.3778	0.2113
407.5833	0.1932
407.7888	0.2083
407.9942	0.1934
408.1997	0.2033
408.4051	0.1991
408.6105	0.2071
408.8159	0.2167
409.0213	0.1972
409.2267	0.206
409.432	0.2129
409.6374	0.2098
409.8427	0.2051
410.048	0.2039
410.2533	0.199
410.4586	0.2078
410.6639	0.1912
410.8691	0.2037
411.0744	0.2105
411.2796	0.1983
411.4848	0.1959
411.69	0.2058
411.8952	0.2072
412.1004	0.1952
412.3056	0.2106
412.5107	0.2088
412.7158	0.211
412.921	0.1973
413.1261	0.1883
413.3312	0.2066
413.5362	0.2038
413.7413	0.1927
413.9464	0.1969
414.1514	0.1902
414.3564	0.2068
414.5614	0.1995
414.7664	0.1989
414.9714	0.188
415.1764	0.1955
415.3813	0.1894
415.5863	0.1999
415.7912	0.2102
415.9961	0.2034
416.201	0.2033
416.4059	0.193
416.6108	0.2003
416.8156	0.1907
417.0205	0.2039
417.2253	0.1998
417.4301	0.1994
417.6349	0.2066
417.8397	0.1903
418.0445	0.1988
418.2492	0.1875
418.454	0.194
418.6587	0.1874
418.8634	0.1903
419.0681	0.2001
419.2728	0.1957
419.4775	0.1851
419.6822	0.1875
419.8868	0.1884
420.0915	0.2019
420.2961	0.185
420.5007	0.1858
420.7053	0.1764
420.9099	0.1736
421.1144	0.1831
421.319	0.1758
421.5235	0.1872
421.728	0.1824
421.9325	0.1773
422.137	0.1614
422.3415	0.1892
422.546	0.1833
422.7504	0.1784
422.9549	0.1874
423.1593	0.1625
423.3637	0.178
423.5681	0.1775
423.7725	0.1706
423.9769	0.1713
424.1812	0.1699
424.3856	0.1797
424.5899	0.1784
424.7942	0.1667
424.9985	0.1722
425.2028	0.1558
425.4071	0.1612
425.6113	0.1692
425.8156	0.1555
426.0198	0.1655
426.224	0.1529
426.4282	0.1536
426.6324	0.1618
426.8366	0.1597
427.0407	0.1601
427.2449	0.1676
427.449	0.1514
427.6531	0.1519
427.8572	0.1423
428.0613	0.1509
428.2654	0.148
428.4694	0.1577
428.6735	0.1679
428.8775	0.139
429.0815	0.1461
429.2855	0.1634
429.4895	0.138
429.6935	0.1467
429.8975	0.1367
430.1014	0.136
430.3053	0.1344
430.5093	0.1534
430.7132	0.137
430.9171	0.1295
431.1209	0.1458
431.3248	0.1357
431.5286	0.1397
431.7325	0.1371
431.9363	0.1341
432.1401	0.1341
432.3439	0.1264
432.5477	0.1273
432.7514	0.1268
432.9552	0.1215
433.1589	0.124
433.3627	0.1243
433.5664	0.1249
433.7701	0.1159
433.9737	0.0992
434.1774	0.1083
434.3811	0.1024
434.5847	0.1219
434.7883	0.1143
434.9919	0.1058
435.1955	0.0949
435.3991	0.1048
435.6027	0.0907
435.8062	0.107
436.0098	0.1044
436.2133	0.0976
436.4168	0.1079
436.6203	0.0996
436.8238	0.0925
437.0272	0.0862
437.2307	0.0842
437.4341	0.091
437.6375	0.0931
437.841	0.0806
438.0443	0.0791
438.2477	0.0805
438.4511	0.0864
438.6545	0.0793
438.8578	0.0786
439.0611	0.0719
439.2644	0.087
439.4677	0.089
439.671	0.0804
439.8743	0.0817
440.0775	0.0697
440.2808	0.0719
440.484	0.0775
440.6872	0.0632
440.8904	0.0673
441.0936	0.0691
441.2967	0.0657
441.4999	0.0606
441.703	0.0486
441.9062	0.0616
442.1093	0.0677
442.3124	0.0592
442.5155	0.0581
442.7185	0.0524
442.9216	0.0501
443.1246	0.066
443.3276	0.0545
443.5307	0.0514
443.7337	0.0605
443.9366	0.0489
444.1396	0.0397
444.3426	0.0508
444.5455	0.0524
444.7484	0.0509
444.9513	0.0466
445.1542	0.0496
445.3571	0.0481
445.56	0.0403
445.7628	0.028
445.9657	0.05
446.1685	0.0362
446.3713	0.0384
446.5741	0.0547
446.7769	0.045
446.9797	0.0307
447.1824	0.0413
447.3852	0.0388
447.5879	0.0404
447.7906	0.0339
447.9933	0.0353
448.196	0.0362
448.3986	0.0267
448.6013	0.0335
448.8039	0.032
449.0066	0.0239
449.2092	0.0231
449.4118	0.0267
449.6143	0.0246
449.8169	0.0186
450.0195	0.0202
450.222	0.0128
450.4245	0.0242
450.627	0.0235
450.8295	0.014
451.032	0.0315
451.2345	0.0181
451.4369	0.0235
451.6394	0.0194
451.8418	0.0167
452.0442	0.0145
452.2466	0.0315
452.449	0.015
452.6513	0.0243
452.8537	0.0234
453.056	0.02
453.2583	0.0193
453.4607	0.0172
453.663	0.0161
453.8652	0.0121
454.0675	0.007
454.2697	0.0213
454.472	0.0165
454.6742	0.008
454.8764	0.0192
455.0786	0.0254
455.2808	0.0168
455.4829	0.0042
455.6851	0.0085
455.8872	-0.001
456.0893	0.008
456.2915	0.0066
456.4935	0.0131
456.6956	0.0076
456.8977	0.0151
457.0997	-0.008
457.3018	0.0071
457.5038	0.0037
457.7058	-0.0019
457.9078	0.0157
458.1098	0.0004
458.3117	0.0081
458.5137	0.0089
458.7156	0.01
458.9175	-0.002
459.1194	0.0109
459.3213	0.0014
459.5232	-0.0009
459.725	0.0046
459.9269	0.0003
460.1287	0.01
460.3305	-0.0033
460.5323	0.0053
460.7341	0.0109
460.9359	0.003
461.1376	0.0039
461.3394	0.0042
461.5411	0.0012
461.7428	-0.012
461.9445	-0.0014
462.1462	0.0017
462.3479	-0.0034
462.5495	0.011
462.7512	-0.0074
462.9528	-0.002
463.1544	-0.0018
463.356	0.0034
463.5576	0.0026
463.7592	-0.0013
463.9607	0.0001
464.1623	-0.002
464.3638	-0
464.5653	0.0092
464.7668	0.0016
464.9683	0.0159
465.1697	0.0032
465.3712	0.0015
465.5726	0.0009
465.7741	0.0027
465.9755	-0.003
466.1769	-0.0123
466.3782	-0.0062
466.5796	-0.0053
466.7809	-0.0012
466.9823	-0.0086
467.1836	-0.003
467.3849	0.0004
467.5862	-0.0045
467.7875	-0.0118
467.9887	0.0014
468.19	-0.0032
468.3912	-0.005
468.5924	0.0019
468.7936	-0.007
468.9948	0.003
469.196	-0.0038
469.3972	0.0059
469.5983	0.0108
469.7994	-0
470.0006	-0.0047
470.2017	-0.006
470.4027	0.0048
470.6038	-0.0046
470.8049	-0.0075
471.0059	0.0004
471.2069	0.0106
471.408	-0.0061
471.6089	-0.0057
471.8099	-0.0032
472.0109	-0.0059
472.2119	-0.0179
472.4128	-0
472.6137	-0.0086
472.8146	-0.0093
473.0155	-0.0044
473.2164	-0.0249
473.4173	-0.0038
473.6181	-0.0045
473.819	-0.0154
474.0198	0.0001
474.2206	0.001
474.4214	-0.0047
474.6222	-0.0036
474.8229	-0.0091
475.0237	0.0026
475.2244	0.0012
475.4251	-0.0145
475.6258	0.0073
475.8265	-0.0019
476.0272	-0.0123
476.2278	0.0025
476.4285	-0.0044
476.6291	-0.0109
476.8297	-0.0097
477.0303	-0.0112
477.2309	-0.0021
477.4315	0.0034
477.632	-0.0111
477.8326	-0.0031
478.0331	0.0015
478.2336	-0.009
478.4341	-0.0048
478.6346	-0.0002
478.8351	-0.0069
479.0355	-0.0105
479.236	-0.0057
479.4364	-0.0104
479.6368	0.0041
479.8372	-0.0065
480.0376	-0.0021
480.2379	-0.0029
480.4383	-0.011
480.6386	-0.0127
480.8389	-0.007
481.0392	-0.0095
481.2395	-0.0081
481.4398	0.0036
481.6401	-0.0118
481.8403	-0.0058
482.0405	-0.0092
482.2408	0.003
482.441	-0.0035
482.6411	0.0063
482.8413	-0.0003
483.0415	-0.0119
483.2416	-0.0088
483.4417	-0.0048
483.6419	0.0034
483.8419	-0.0071
484.042	-0.005
484.2421	-0.008
484.4422	-0.0065
484.6422	-0.0121
484.8422	-0.0096
485.0422	-0.0053
485.2422	-0.0086
485.4422	-0.0081
485.6422	0.001
485.8421	-0.0051
486.042	-0.0003
486.242	-0.0066
486.4419	-0.0054
486.6417	-0.008
486.8416	0.0004
487.0415	-0.0056
487.2413	-0.0067
487.4411	-0.004
487.641	-0.0036
487.8408	-0.0045
488.0405	-0.0066
488.2403	-0.013
488.4401	-0.0083
488.6398	-0.0102
488.8395	-0.0088
489.0392	-0.0078
489.2389	-0.0069
489.4386	-0.0027
489.6383	-0.0069
489.8379	-0.0066
490.0376	-0.0061
490.2372	-0.0001
490.4368	-0.0168
490.6364	-0.0026
490.836	-0.0055
491.0355	-0.0067
491.2351	-0.0057
491.4346	-0.0077
491.6341	-0.0031
491.8336	-0.0064
492.0331	-0.0112
492.2326	-0.0177
492.432	0.0008
492.6315	-0.0025
492.8309	-0.0028
493.0303	-0.0022
493.2297	-0.0046
493.4291	-0.0094
493.6284	-0.0006
493.8278	-0.0028
494.0271	-0.0016
494.2264	-0.0056
494.4257	-0.0008
494.625	-0.0036
494.8243	-0.0063
495.0236	-0.0182
495.2228	-0.0059
495.422	-0.0025
495.6213	-0.0138
495.8205	-0.0029
496.0196	-0.0067
496.2188	-0.0048
496.418	-0.004
496.6171	-0.0002
496.8162	-0.0097
497.0153	-0.0028
497.2144	0.0022
497.4135	-0.0052
497.6126	-0.0045
497.8116	-0.007
498.0107	0.0009
498.2097	-0.0015
498.4087	-0.0021
498.6077	-0.0017
498.8067	-0.0102
499.0056	-0.0034
499.2046	-0.0013
499.4035	-0.0134
499.6024	-0.0071
499.8013	-0.0012
500.0002	-0.0041
500.199	-0.008
500.3979	0.0007
500.5967	-0.0078
500.7956	-0.0101
500.9944	-0.006
501.1932	-0.0067
501.3919	-0.0119
501.5907	-0.0051
501.7895	-0.0027
501.9882	-0.009
502.1869	-0.0041
502.3856	-0.0008
502.5843	-0.0095
502.783	-0.0015
502.9816	-0.0132
503.1803	-0.0048
503.3789	0.0007
503.5775	-0.0086
503.7761	-0.0058
503.9747	-0.0103
504.1732	-0.0025
504.3718	-0.006
504.5703	-0.0018
504.7689	-0.0061
504.9674	-0.0033
505.1658	-0.0076
505.3643	-0.0035
505.5628	-0.0001
505.7612	-0.0125
505.9597	-0.0062
506.1581	-0.005
506.3565	-0.0067
506.5549	-0.0075
506.7532	-0.0073
506.9516	-0.0009
507.1499	-0.0042
507.3482	-0.007
507.5465	-0.0041
507.7448	-0.0083
507.9431	-0.0003
508.1414	-0.0063
508.3396	-0.0043
508.5379	-0.0082
508.7361	-0.0001
508.9343	-0.0062
509.1325	-0.0071
509.3306	-0.0052
509.5288	-0.0011
509.7269	-0.0091
509.9251	-0.0133
510.1232	0.0011
510.3213	-0.0059
510.5193	-0.0011
510.7174	-0.0049
510.9154	-0.0043
511.1135	-0.0113
511.3115	-0.0069
511.5095	-0.0152
511.7075	0.0008
511.9055	-0.006
512.1034	-0.0108
512.3014	-0.0079
512.4993	-0.0061
512.6972	-0.0025
512.8951	-0.0041
513.093	-0.0102
513.2908	0.0012
513.4887	-0.0007
513.6865	-0.006
513.8844	0.0061
514.0822	-0.0014
514.2799	-0.0124
514.4777	-0.0057
514.6755	-0.0045
514.8732	-0.0086
515.0709	-0.0029
515.2687	-0.008
515.4664	-0.0072
515.664	-0.0101
515.8617	-0.0079
516.0594	-0.0093
516.257	-0.0052
516.4546	-0.0144
516.6522	-0.0086
516.8498	-0.0143
517.0474	-0.0019
517.2449	-0.0134
517.4425	-0.0022
517.64	-0.0047
517.8375	-0.0038
518.035	-0.0063
518.2325	-0.0014
518.43	-0.0058
518.6274	-0.0116
518.8249	-0.006
519.0223	-0.0086
519.2197	-0.0066
519.4171	-0.0046
519.6145	-0.0073
519.8118	-0.0128
520.0092	0.001
520.2065	-0.0137
520.4038	-0.0071
520.6011	-0.0061
520.7984	-0.0018
520.9956	-0.0089
521.1929	-0.0009
521.3901	-0.0093
521.5874	-0.009
521.7846	0.0023
521.9818	-0.0086
522.1789	-0.0043
522.3761	-0.0075
522.5732	0.0018
522.7704	-0.0043
522.9675	-0.0092
523.1646	-0.0044
523.3617	0.0026
523.5587	-0.0035
523.7558	0.0044
523.9528	-0.0041
524.1498	-0.0101
524.3468	0.0023
524.5438	-0.0027
524.7408	-0.0095
524.9378	-0.0072
525.1347	0.0001
525.3316	0.0033
525.5285	-0.0037
525.7254	-0.0134
525.9223	-0.0031
526.1192	-0.0057
526.316	-0.0082
526.5129	-0.003
526.7097	-0.0075
526.9065	-0.0016
527.1033	0.0015
527.3	-0.0017
527.4968	-0.0159
527.6935	-0.0027
527.8903	-0.0056
528.087	-0.0139
528.2837	-0.0058
528.4804	0.0002
528.677	-0.0047
528.8737	-0.0057
529.0703	-0.0008
529.2669	0.0015
529.4635	-0.0065
529.6601	-0.0004
529.8567	-0.0042
530.0532	-0.0014
530.2498	-0.0051
530.4463	-0.0019
530.6428	-0.0031
530.8393	-0.0021
531.0358	-0.0125
531.2322	-0.0065
531.4287	-0.0123
531.6251	0.001
531.8215	-0.0005
532.0179	-0.0095
532.2143	-0.0057
532.4107	-0.0048
532.607	-0.0121
532.8034	-0.0105
532.9997	-0.002
533.196	-0.0083
533.3923	-0.003
533.5886	-0.0013
533.7848	-0.0077
533.9811	-0.0031
534.1773	-0.0076
534.3735	-0.0057
534.5697	-0.0043
534.7659	-0.0074
534.9621	0.0004
535.1582	-0.0134
535.3544	-0.0108
535.5505	-0.0011
535.7466	-0.0012
535.9427	-0.0034
536.1387	-0.0028
536.3348	0.0042
536.5308	-0.0032
536.7269	-0.0004
536.9229	-0.0085
537.1189	-0.0053
537.3148	-0.0052
537.5108	-0.0035
537.7068	-0.0068
537.9027	-0.0062
538.0986	0.0004
538.2945	-0.0049
538.4904	-0.0098
538.6863	-0.0095
538.8821	-0.0043
539.078	-0.0143
539.2738	-0.0049
539.4696	-0.0088
539.6654	-0.0063
539.8611	-0.0022
540.0569	-0.0005
540.2526	-0.0042
540.4484	0.0032
540.6441	-0.007
540.8398	-0.0034
541.0355	-0.0028
541.2311	-0.0016
541.4268	-0.0016
541.6224	-0.0006
541.818	-0.0041
542.0136	-0.0058
542.2092	-0.0088
542.4048	-0.0017
542.6003	-0.003
542.7959	0.0007
542.9914	-0.0039
543.1869	-0.0066
543.3824	-0.0067
543.5779	-0.0115
543.7734	-0.0085
543.9688	-0.0109
544.1642	-0.0064
544.3596	-0.0086
544.555	-0.0051
544.7504	-0.009
544.9458	-0.0011
545.1411	0.0061
545.3365	-0.0026
545.5318	-0.0032
545.7271	0.0042
545.9224	0.0026
546.1177	-0.007
546.3129	0.0002
546.5081	-0.0012
546.7034	-0.0036
546.8986	-0.0094
547.0938	-0.0045
547.289	-0.0048
547.4841	-0.0017
547.6793	-0.0046
547.8744	0.005
548.0695	-0.0105
548.2646	-0.0064
548.4597	0.0033
548.6548	-0.0042
548.8498	-0.0033
549.0448	-0.0036
549.2399	-0.0042
549.4349	-0.0028
549.6298	-0.0044
549.8248	-0.0022
550.0198	-0.0005
550.2147	0.0004
550.4096	-0.0086
550.6045	-0.0094
550.7994	0.0013
550.9943	0.0002
551.1892	-0.003
551.384	-0.0129
551.5788	-0.0094
551.7737	-0.0021
551.9685	-0.0047
552.1632	-0.0041
552.358	-0.0061
552.5528	-0.0079
552.7475	-0.0071
552.9422	-0.0012
553.1369	-0.0073
553.3316	-0.0032
553.5263	-0.0018
553.7209	-0.0093
553.9156	-0.0058
554.1102	-0.0108
554.3048	-0.0068
554.4994	-0.0041
554.694	0.0012
554.8885	-0.0056
555.0831	-0.0017
555.2776	-0.0018
555.4721	-0.0051
555.6666	-0.0037
555.8611	-0.0022
556.0555	-0.0094
556.25	-0.003
556.4444	0.0009
556.6388	-0.008
556.8332	-0.002
557.0276	-0.002
557.222	-0.0047
557.4163	-0.0082
557.6107	-0.0114
557.805	-0.0051
557.9993	-0.0013
558.1936	0.001
558.3879	0.0027
558.5821	-0.0048
558.7764	-0.0074
558.9706	-0.0042
559.1648	-0.0067
559.359	-0.0115
559.5532	-0.0046
559.7473	-0.0089
559.9415	-0.0054
560.1356	-0.0061
560.3297	-0.0113
560.5238	-0.0015
560.7179	-0.0035
560.9119	0.003
561.106	-0.0016
561.3	-0.0023
561.494	-0.0016
561.688	-0.0035
561.882	-0.0067
562.076	-0.0072
562.2699	-0.007
562.4639	0.0009
562.6578	-0.0033
562.8517	-0.0018
563.0456	-0.0015
563.2395	-0.0073
563.4333	-0.0022
563.6272	-0.005
563.821	-0.0034
564.0148	0.0024
564.2086	-0.0038
564.4024	-0.0013
564.5961	-0.0009
564.7899	-0.0026
564.9836	0.0012
565.1773	-0.0056
565.371	0.0008
565.5647	-0.0057
565.7584	0.0028
565.952	0.004
566.1456	-0.0047
566.3393	-0.0047
566.5329	-0.0014
566.7264	-0.0011
566.92	-0.0019
567.1136	-0.0037
567.3071	-0.0017
567.5006	0.0029
567.6941	-0.0036
567.8876	0.0007
568.0811	0.0004
568.2745	-0.0068
568.468	-0.0036
568.6614	-0.0107
568.8548	-0.0079
569.0482	-0.0047
569.2416	-0.004
569.4349	-0.0032
569.6283	-0.0059
569.8216	-0.0052
570.0149	-0.0074
570.2082	-0.0016
570.4015	0.0021
570.5947	-0.003
570.788	-0.0064
570.9812	-0.0032
571.1744	-0.0101
571.3676	-0.0056
571.5608	-0.0051
571.754	-0.006
571.9471	-0.0077
572.1402	-0.005
572.3333	-0.0071
572.5264	-0.0036
572.7195	-0.0009
572.9126	-0.0039
573.1057	-0.0039
573.2987	0.0016
573.4917	-0.0076
573.6847	-0.0005
573.8777	-0.0063
574.0707	0.0004
574.2636	-0.0063
574.4566	-0.0024
574.6495	-0.0043
574.8424	-0.002
575.0353	-0.0012
575.2281	-0.0006
575.421	-0.0075
575.6138	-0.0063
575.8067	-0.0054
575.9995	-0.0024
576.1923	-0.0039
576.385	-0.0082
576.5778	-0.0051
576.7706	-0.0028
576.9633	-0.0039
577.156	-0.0017
577.3487	0.0007
577.5414	0.0019
577.734	0.0031
577.9267	0.0017
578.1193	-0.0054
578.3119	0.004
578.5045	-0.004
578.6971	-0.0025
578.8897	-0.005
579.0822	-0.0024
579.2747	0.0016
579.4673	-0.0026
579.6598	-0.0029
579.8522	0.0007
580.0447	-0.0026
580.2372	0.0023
580.4296	0.0035
580.622	0.0021
580.8144	0.0005
581.0068	-0.0037
581.1992	0.0032
581.3915	-0.002
581.5839	-0.0015
581.7762	-0.0085
581.9685	-0.0011
582.1608	-0.0081
582.353	0.0007
582.5453	-0.0037
582.7375	-0.0017
582.9298	-0.0053
583.122	-0.0034
583.3142	-0.0004
583.5063	0.0014
583.6985	-0.0068
583.8906	-0.0032
584.0827	-0.0057
584.2749	-0.0051
584.4669	-0.0031
584.659	-0.0067
584.8511	-0.0029
585.0431	-0.0036
585.2352	-0.0045
585.4272	-0.0071
585.6192	-0.0053
585.8111	-0.0051
586.0031	-0.0024
586.195	-0.0075
586.387	0.0009
586.5789	-0.0062
586.7708	-0.0073
586.9627	-0.006
587.1545	-0.0088
587.3464	-0.0058
587.5382	-0.0071
587.73	-0.0066
587.9218	-0.0037
588.1136	-0.0014
588.3053	-0.0028
588.4971	-0.0123
588.6888	-0.0055
588.8805	-0.0047
589.0722	0.0004
589.2639	0.0009
589.4556	-0.0028
589.6472	-0.0028
589.8389	-0.0054
590.0305	-0.0042
590.2221	-0.0026
590.4137	-0.0063
590.6052	-0.0011
590.7968	-0.0022
590.9883	-0.0045
591.1798	-0.0102
591.3713	-0.0021
591.5628	-0.0093
591.7543	-0.0003
591.9458	0
592.1372	-0.0017
592.3286	-0.0053
592.52	-0.0034
592.7114	0.0073
592.9028	-0.0072
593.0941	-0.0034
593.2855	-0.0009
593.4768	-0.0009
593.6681	-0.0003
593.8594	0.0007
594.0506	-0.0032
594.2419	0.0017
594.4331	-0.0038
594.6244	-0.0021
594.8156	-0.0067
595.0067	-0.0023
595.1979	-0.006
595.3891	-0.0082
595.5802	-0.0042
595.7713	-0.0007
595.9624	-0.0036
596.1535	0.0019
596.3446	-0.0034
596.5357	-0.0001
596.7267	-0.0043
596.9177	0.0008
597.1087	0.0012
597.2997	0.0042
597.4907	-0.0004
597.6817	-0.0047
597.8726	-0.0035
598.0635	-0.0039
598.2544	-0.0045
598.4453	-0.003
598.6362	-0.0037
598.827	-0.0046
599.0179	-0.0061
599.2087	-0.012
599.3995	-0.0044
599.5903	0.0006
599.7811	-0.0038
599.9718	0.0009
600.1626	-0.001
600.3533	-0.0046
600.544	-0.0043
600.7347	0.0021
600.9254	-0.0017
601.116	-0.0044
601.3067	-0.0062
601.4973	-0.0074
601.6879	-0.0009
601.8785	-0.0064
602.0691	-0.004
602.2596	-0.0033
602.4502	-0.0035
602.6407	-0.0003
602.8312	-0.0055
603.0217	-0.0019
603.2122	-0.003
603.4027	-0.0008
603.5931	-0.0053
603.7835	-0.0048
603.9739	-0.0038
604.1643	-0.002
604.3547	0.0009
604.5451	-0.0001
604.7354	-0.0022
604.9257	-0.0037
605.116	-0.0015
605.3063	0.0019
605.4966	-0.0043
605.6869	-0.0027
605.8771	-0.003
606.0673	-0.0051
606.2575	-0.0037
606.4477	-0.0053
606.6379	-0.0091
606.8281	-0.0104
607.0182	-0.0076
607.2083	-0.0062
607.3985	-0.0102
607.5885	-0.0082
607.7786	-0.0009
607.9687	-0.0021
608.1587	-0.0033
608.3488	-0.0036
608.5388	0.0036
608.7288	-0.0036
608.9187	-0.0036
609.1087	-0.0038
609.2986	0.0005
609.4886	-0.0038
609.6785	-0.0017
609.8684	-0.0026
610.0582	-0.0018
610.2481	-0.0019
610.4379	-0.0003
610.6278	-0.0006
610.8176	0.0027
611.0074	0.0011
611.1971	0.0017
611.3869	-0.0042
611.5766	-0.0008
611.7664	0.0004
611.9561	-0.0015
612.1458	0.0049
612.3354	-0.0049
612.5251	-0.0039
612.7147	-0.004
612.9044	-0.0016
613.094	-0.0015
613.2836	-0.0024
613.4731	-0.0088
613.6627	-0.0034
613.8522	-0.0033
614.0417	-0.005
614.2313	-0.0071
614.4207	-0.0071
614.6102	-0.0028
614.7997	-0.004
614.9891	-0.0013
615.1785	-0.0032
615.3679	-0.0012
615.5573	0.0018
615.7467	0.0006
615.9361	-0.003
616.1254	-0.0054
616.3147	-0.0017
616.504	-0.001
616.6933	-0.0016
616.8826	-0.0045
617.0718	-0.0026
617.2611	0.0028
617.4503	-0.0004
617.6395	-0.0032
617.8287	-0.0021
618.0179	0.0015
618.207	-0.0047
618.3961	-0.0074
618.5853	-0.0027
618.7744	-0.0014
618.9634	-0.0035
619.1525	-0.0041
619.3416	-0.0055
619.5306	-0.0005
619.7196	0.0001
619.9086	-0.0034
620.0976	-0.0017
620.2866	-0.0027
620.4755	-0.0025
620.6645	0.0013
620.8534	-0.0013
621.0423	-0.0082
621.2312	-0.009
621.42	-0.0025
621.6089	-0.004
621.7977	-0.0043
621.9865	-0.0006
622.1753	0.0055
622.3641	0.0013
622.5529	0.0037
622.7416	-0.0025
622.9303	0.0018
623.1191	-0.0023
623.3078	0.0025
623.4964	0.0008
623.6851	-0.0001
623.8737	0.0002
624.0624	-0.0026
624.251	0.0021
624.4396	0.0017
624.6282	-0.0006
624.8167	0.0024
625.0053	-0.0005
625.1938	-0.0015
625.3823	0.0011
625.5708	-0.0009
625.7593	-0.0009
625.9477	-0.0063
626.1362	-0.0031
626.3246	0.0024
626.513	-0.0082
626.7014	-0.0016
626.8898	-0.0032
627.0781	-0.0009
627.2665	-0.0061
627.4548	-0.0078
627.6431	-0.0016
627.8314	-0.0088
628.0197	-0.0036
628.2079	0.0032
628.3962	0.0026
628.5844	0.0023
628.7726	0.0009
628.9608	0.0004
629.1489	0.0064
629.3371	0.0042
629.5252	0.0038
629.7134	-0.0013
629.9015	-0.0029
630.0895	-0.0019
630.2776	-0.0012
630.4657	-0.0013
630.6537	-0.0025
630.8417	-0
631.0297	-0.0037
631.2177	-0.0001
631.4057	0.0026
631.5936	0.0013
631.7815	-0.0013
631.9695	-0.0052
632.1574	-0.0073
632.3452	-0.0038
632.5331	-0.0043
632.7209	-0.0081
632.9088	-0.01
633.0966	-0.0055
633.2844	-0.0062
633.4722	0.0001
633.6599	-0.0014
633.8477	-0.0026
634.0354	-0.0038
634.2231	-0.0067
634.4108	-0.0011
634.5985	-0.0021
634.7861	-0.0069
634.9738	-0.0097
635.1614	-0.0037
635.349	-0.0053
635.5366	-0.0012
635.7242	0.0002
635.9117	0.0024
636.0993	-0.0004
636.2868	0.0002
636.4743	0.0009
636.6618	-0.0048
636.8492	-0.0011
637.0367	-0.003
637.2241	-0.0031
637.4115	-0.0043
637.5989	0.0013
637.7863	-0.0029
637.9737	-0.0019
638.161	-0.0035
638.3484	-0.0008
638.5357	-0.0031
638.723	-0.0052
638.9103	0.0023
639.0975	0.0004
639.2848	-0.0034
639.472	0.0014
639.6592	0.0048
639.8464	0.0001
640.0336	-0.0062
640.2208	0.0092
640.4079	-0.0024
640.595	0.003
640.7821	-0.0014
640.9692	0.0018
641.1563	0.0042
641.3434	0.0033
641.5304	-0.005
641.7174	0.0015
641.9044	0.0049
642.0914	-0.001
642.2784	0.0016
642.4653	0.0063
642.6523	0.0021
642.8392	0.0042
643.0261	0.0064
643.213	0.0041
643.3999	0.0013
643.5867	-0.0023
643.7735	-0.0018
643.9604	-0.0014
644.1472	-0.0018
644.3339	0.0016
644.5207	-0.0031
644.7075	-0.0084
644.8942	-0.0034
645.0809	-0.0014
645.2676	-0.0064
645.4543	0.0037
645.6409	-0.0034
645.8276	-0.0015
646.0142	-0.0022
646.2008	-0.0065
646.3874	-0.0045
646.574	-0.0031
646.7605	0.0006
646.9471	-0.0078
647.1336	-0.0022
647.3201	-0.0064
647.5066	-0.0012
647.6931	-0.0008
647.8795	-0.0071
648.0659	-0.0022
648.2524	-0.0042
648.4388	-0.0071
648.6252	-0.0061
648.8115	-0.0085
648.9979	-0.0042
649.1842	-0.0138
649.3705	-0.003
649.5568	0
649.7431	-0.0035
649.9294	-0.0003
650.1156	-0.0034
650.3018	-0.0069
650.488	-0.0064
650.6742	-0.0077
650.8604	-0.0001
651.0466	0.001
651.2327	-0.0049
651.4188	0.0001
651.6049	0.0008
651.791	-0.0006
651.9771	0.0008
652.1632	-0.0003
652.3492	0.0011
652.5352	-0.0028
652.7212	-0.0027
652.9072	0.0006
653.0932	-0.0003
653.2791	-0.0023
653.465	-0.0001
653.651	-0.0047
653.8369	-0.0031
654.0227	0.0029
654.2086	0.0016
654.3944	-0.0079
654.5803	-0.0043
654.7661	-0.0052
654.9519	-0.0062
655.1377	-0.0022
655.3234	0
655.5092	0
655.6949	0
655.8806	0
656.0663	0
656.2519	0
656.4376	-0.0041
656.6232	-0.004
656.8088	-0.0051
656.9945	-0.0012
657.18	-0.0001
657.3656	-0.0019
657.5511	-0.0067
657.7367	-0.007
657.9222	0.0035
658.1077	0.0003
658.2932	-0.0014
658.4786	-0.0034
658.6641	0.0002
658.8495	-0.0104
659.0349	-0.0057
659.2203	-0.0039
659.4057	-0.005
659.591	-0.0016
659.7764	-0.0094
659.9617	-0.0039
660.147	-0.0031
660.3323	-0.0032
660.5176	-0.0068
660.7028	-0.0034
660.888	-0.0062
661.0733	0.0017
661.2585	-0.0062
661.4436	-0.0021
661.6288	-0.0022
661.8139	-0.0019
661.9991	-0.0007
662.1842	-0.0019
662.3693	-0.0024
662.5544	-0.0022
662.7394	0.001
662.9245	0.0013
663.1095	0.0041
663.2945	-0.0035
663.4795	-0.0042
663.6644	-0.0039
663.8494	-0.0036
664.0343	-0.0049
664.2193	-0.0078
664.4042	-0.0065
664.589	-0.0057
664.7739	-0.0047
664.9587	0.001
665.1436	0.0027
665.3284	-0.0011
665.5132	-0.0027
665.698	0.007
665.8827	0.0002
666.0675	-0.0033
666.2522	-0.0046
666.4369	-0.0095
666.6216	-0.0097
666.8063	-0.0087
666.9909	-0.0077
667.1756	-0.0117
667.3602	-0.0107
667.5448	-0.0076
667.7294	-0.0038
667.9139	-0.0055
668.0985	-0.0112
668.283	-0.0063
668.4675	-0.0168
668.652	-0.0128
668.8365	-0.0091
669.0209	-0.0075
669.2054	-0.0038
669.3898	-0.0097
669.5742	-0.0053
669.7586	-0.0014
669.943	-0.0076
670.1273	-0.0117
670.3117	-0.0048
670.496	-0.0067
670.6803	-0.0009
670.8646	-0.0019
671.0488	-0.0027
671.2331	-0.0004
671.4173	0.0007
671.6015	-0.0039
671.7857	-0.0042
671.9699	-0.0045
672.1541	-0.0046
672.3382	-0.0046
672.5223	-0.0013
672.7064	-0.0075
672.8905	-0.0132
673.0746	-0.0093
673.2587	-0.0161
673.4427	-0.0129
673.6267	-0.0123
673.8107	-0.0148
673.9947	-0.0105
674.1787	-0.0094
674.3626	-0.0091
674.5465	-0.0049
674.7304	0.0011
674.9143	-0.003
675.0982	-0.0018
675.2821	-0.0031
675.4659	-0.0042
675.6497	-0.0005
675.8335	0.0015
676.0173	-0.0043
676.2011	-0.0118
676.3849	-0.0054
676.5686	-0.0008
676.7523	-0.0052
676.936	-0.002
677.1197	-0.0014
677.3034	-0.0077
677.487	-0.005
677.6706	-0.0038
677.8542	-0.0018
678.0378	-0.0059
678.2214	-0.0062
678.405	-0.0046
678.5885	-0.0123
678.772	-0.0047
678.9555	-0.0009
679.139	-0.0074
679.3225	-0.0062
679.5059	-0.0057
679.6894	-0.0045
679.8728	0.0004
680.0562	-0.0002
680.2395	-0.0048
680.4229	0.0013
680.6062	0.0039
680.7896	0.0019
680.9729	-0.0027
681.1562	0.0009
681.3394	-0.0018
681.5227	-0.0015
681.7059	-0.0018
681.8891	-0.007
682.0723	-0.0049
682.2555	-0.0067
682.4387	-0.0035
682.6218	-0.0082
682.805	-0.0052
682.9881	-0.0074
683.1712	0.0007
683.3542	-0.0004
683.5373	-0.0056
683.7203	-0.0058
683.9034	-0.0051
684.0864	-0.0051
684.2694	-0.0059
684.4523	-0.0049
684.6353	-0.001
684.8182	0.0006
685.0011	-0.0042
685.184	-0.0009
685.3669	-0.001
685.5498	-0.0037
685.7326	-0.0017
685.9154	-0.0077
686.0982	-0.0041
686.281	-0.0076
686.4638	-0.0055
686.6465	-0.0033
686.8293	-0.0104
687.012	-0.0026
687.1947	-0.0076
687.3774	-0.0053
687.56	-0.005
687.7427	-0
687.9253	-0.003
688.1079	0.0027
688.2905	-0.0032
688.4731	-0.0024
688.6556	-0.0036
688.8382	-0.0034
689.0207	0.0002
689.2032	-0.0001
689.3857	0
689.5681	0.0012
689.7506	0.0036
689.933	-0.0006
690.1154	-0.0038
690.2978	-0.0025
690.4802	-0.0049
690.6626	0.0053
690.8449	0.0047
691.0272	0.0051
691.2095	0.0027
691.3918	-0.0045
691.5741	-0.003
691.7563	-0.0024
691.9386	-0.0032
692.1208	-0.0026
692.303	-0.0087
692.4852	-0.0021
692.6673	0.0009
692.8495	-0.0078
693.0316	-0.0008
693.2137	-0.0062
693.3958	-0.005
693.5778	0.002
693.7599	-0.0056
693.9419	-0.0086
694.1239	-0.0035
694.3059	-0.0134
694.4879	-0.0072
694.6699	-0.008
694.8518	-0.0055
695.0337	-0.005
695.2157	-0.0062
695.3975	-0.0079
695.5794	-0.0057
695.7613	-0.0049
695.9431	-0.0041
696.1249	-0.0032
696.3067	-0.0085
696.4885	-0.0006
696.6703	-0.0035
696.852	-0.0038
697.0337	0.0003
697.2154	-0.0001
697.3971	-0.0016
697.5788	-0.0029
697.7605	-0.0038
697.9421	-0.0043
698.1237	-0.0066
698.3053	-0.0013
698.4869	0.0041
698.6685	-0.0041
698.85	-0.0092
699.0315	-0.0002
699.213	0.001
699.3945	-0
699.576	0.0075
699.7575	0.0007
699.9389	-0.0029
700.1203	-0.0043
700.3017	-0.0051
700.4831	-0.0049
700.6645	-0.0103
700.8458	-0.0042
701.0271	-0.0081
701.2084	-0.0095
701.3897	-0.0076
701.571	-0.0003
701.7523	0.0003
701.9335	0.0081
702.1147	0.0075
702.2959	-0.0068
702.4771	-0.0002
702.6583	0.0017
702.8394	-0.0029
703.0205	-0.0043
703.2016	-0.0012
703.3827	0.0022
703.5638	-0.0057
703.7449	-0.0044
703.9259	-0.0022
704.1069	-0.0032
704.2879	-0.0039
704.4689	-0.0046
704.6499	-0.0046
704.8308	-0.0032
705.0117	-0.0005
705.1927	-0.0011
705.3735	0.0049
705.5544	0.0039
705.7353	-0.0017
705.9161	0.0034
706.0969	0.0053
706.2777	-0.0062
706.4585	-0.0031
706.6393	-0.0008
706.82	-0.0074
707.0007	-0.0032
707.1815	0.0005
707.3621	-0.002
707.5428	-0.0026
707.7235	-0.002
707.9041	0.0019
708.0847	-0.0063
708.2653	0.0019
708.4459	-0.0013
708.6265	-0.0033
708.807	-0.0014
708.9875	-0.0031
709.168	-0.004
709.3485	-0.0026
709.529	-0.0038
709.7095	-0.0043
709.8899	-0.0081
710.0703	0.0016
710.2507	-0.0008
710.4311	-0.0012
710.6115	-0.0018
710.7918	-0.0042
710.9721	-0.0021
711.1524	0.0021
711.3327	0.0023
711.513	-0.0027
711.6932	-0.0025
711.8735	0.0053
712.0537	-0.0019
712.2339	-0.0053
712.4141	-0.0021
712.5942	0.0027
712.7744	-0.001
712.9545	0.0014
713.1346	-0.0098
713.3147	-0.0005
713.4947	0.0024
713.6748	0.002
713.8548	-0.0039
714.0348	-0.0039
714.2148	-0.005
714.3948	-0.0011
714.5748	-0.0089
714.7547	-0.0039
714.9346	-0.0053
715.1145	-0.0058
715.2944	-0.0028
715.4743	-0.0001
715.6541	-0.0038
715.834	0.0001
716.0138	-0.006
716.1936	-0.0038
716.3733	-0.0055
716.5531	-0.0065
716.7328	-0.0023
716.9126	-0.0051
717.0923	-0.0009
717.2719	-0.0043
717.4516	-0.0065
717.6312	0.0006
717.8109	-0.0034
717.9905	-0.009
718.1701	-0.0018
718.3496	-0.0001
718.5292	-0.0076
718.7087	-0.0059
718.8882	-0.0015
719.0677	-0.0033
719.2472	-0.0011
719.4267	-0.0053
719.6061	-0.0079
719.7856	-0.0061
719.965	-0.0123
720.1443	-0.004
720.3237	-0.0046
720.5031	-0.0103
720.6824	-0.0047
720.8617	-0.0091
721.041	-0.0021
721.2203	-0.0105
721.3995	-0.0022
721.5788	-0.0094
721.758	-0.0058
721.9372	0.0007
722.1164	-0.0053
722.2956	-0.0093
722.4747	-0.0016
722.6538	-0.0092
722.8329	-0.0026
723.012	-0.0032
723.1911	-0.0024
723.3702	0.0012
723.5492	-0.0042
723.7282	0.0017
723.9072	-0.0067
724.0862	-0.0035
724.2652	-0.0014
724.4441	-0.0071
724.623	-0.0006
724.8019	-0.0053
724.9808	-0.0002
725.1597	0.0012
725.3385	0.0016
725.5174	0.002
725.6962	-0.0065
725.875	0.0032
726.0538	0.0035
726.2325	-0.0054
726.4112	-0.0007
726.59	-0.0043
726.7687	-0.0037
726.9474	-0.0036
727.126	-0.0072
727.3047	0.0002
727.4833	0.004
727.6619	-0.0073
727.8405	-0.0056
728.0191	-0.0009
728.1976	-0.0045
728.3762	-0.0092
728.5547	-0.0104
728.7332	-0.0062
728.9116	-0.015
729.0901	-0.0084
729.2686	-0.0088
729.447	-0.0084
729.6254	-0.0062
729.8038	-0.0153
729.9821	0.0013
730.1605	0.0023
730.3388	0.0057
730.5171	0.0009
730.6954	-0.0029
730.8737	0.0003
731.0519	-0.0011
731.2302	0.0008
731.4084	0.0017
731.5866	0.0064
731.7648	-0.0027
731.9429	0.0049
732.1211	0.0041
732.2992	0.004
732.4773	0.004
732.6554	-0.0055
732.8335	-0.0068
733.0115	-0.0104
733.1896	-0.0084
733.3676	-0.0031
733.5456	0.0034
733.7235	-0.0026
733.9015	0.0021
734.0794	0.0037
734.2574	0.0031
734.4353	0.0019
734.6131	0.0071
734.791	-0.0034
734.9689	-0.0048
735.1467	0.0037
735.3245	-0.0025
735.5023	-0.0062
735.68	-0.0028
735.8578	-0.0021
736.0355	0.0104
736.2132	-0.0006
736.3909	0.0007
736.5686	-0.003
736.7463	-0.0046
736.9239	-0.0023
737.1015	0.0036
737.2791	-0.0069
737.4567	-0.0092
737.6343	-0.0056
737.8118	-0.0052
737.9894	0.003
738.1669	-0.0063
738.3444	-0.0034
738.5218	-0.0023
738.6993	0.0021
738.8767	-0.0048
739.0541	-0.0048
739.2315	-0.0024
739.4089	-0.0024
739.5863	-0.0053
739.7636	-0.0058
739.9409	-0.0051
740.1182	0.0044
740.2955	-0.0018
740.4728	-0.0028
740.65	-0.0029
740.8272	0.01
741.0044	-0.0008
741.1816	0.0034
741.3588	0.0026
741.5359	0.0051
741.7131	-0.0032
741.8902	-0.0008
742.0673	0.0008
742.2444	-0.0062
742.4214	-0.0064
742.5985	-0.003
742.7755	-0.0055
742.9525	-0.0025
743.1295	-0.0065
743.3064	-0.0095
743.4834	-0.0001
743.6603	-0.0066
743.8372	0.0047
744.0141	-0.0017
744.191	-0.0005
744.3678	-0.0056
744.5446	0.0043
744.7215	-0.0104
744.8982	-0.0018
745.075	-0.0039
745.2518	0.0022
745.4285	-0.0001
745.6052	0.0066
745.7819	-0.0003
745.9586	-0.0002
746.1353	-0.0058
746.3119	0.005
746.4885	-0.0081
746.6651	-0.0031
746.8417	-0.0061
747.0183	-0.0027
747.1948	-0.0015
747.3714	-0.0061
747.5479	-0.0007
747.7244	0.0004
747.9008	0.0034
748.0773	-0.0004
748.2537	0.0059
748.4301	-0.0014
748.6065	0.0015
748.7829	0.0071
748.9593	0.0005
749.1356	-0.0079
749.3119	-0.0009
749.4882	0.0005
749.6645	-0.0059
749.8408	-0.0006
750.017	-0.0019
750.1933	-0.0082
750.3695	-0.0109
750.5457	-0.003
750.7218	-0.0081
750.898	-0.004
751.0741	-0.0135
751.2502	-0.0075
751.4263	-0.0025
751.6024	-0.0069
751.7784	-0.002
751.9545	-0.0039
752.1305	0.0057
752.3065	-0.0057
752.4825	-0.0035
752.6584	-0.0026
752.8344	-0.0022
753.0103	-0.0017
753.1862	0.0045
753.3621	-0.0025
753.5379	-0.0058
753.7138	0.0042
753.8896	-0.0109
754.0654	-0.0065
754.2412	-0.0097
754.417	-0.0064
754.5927	-0.0018
754.7685	-0.011
754.9442	-0.0087
755.1199	-0.0131
755.2956	-0.0062
755.4712	-0.0025
755.6469	-0.009
755.8225	-0.0086
755.9981	-0.0009
756.1736	-0.0014
756.3492	-0.0083
756.5248	-0.0002
756.7003	-0.0093
756.8758	-0.0083
757.0513	-0.0067
757.2267	-0.011
757.4022	-0.0121
757.5776	-0.0133
757.753	-0.0133
757.9284	-0.0078
758.1038	-0.0073
758.2791	-0.017
758.4545	-0.0103
758.6298	-0.0047
758.8051	-0.0095
758.9803	-0.0156
759.1556	-0.0061
759.3308	-0.0069
759.506	-0.0125
759.6812	-0.0122
759.8564	-0.0093
760.0316	-0.0092
760.2067	-0.0075
760.3819	-0.0052
760.557	-0.0138
760.732	-0.0072
760.9071	-0.0108
761.0821	-0.0106
761.2572	-0.0096
761.4322	-0.0082
761.6072	-0.0086
761.7821	-0.0084
761.9571	-0.0086
762.132	-0.0105
762.3069	-0.0016
762.4818	-0.0024
762.6567	-0.0111
762.8316	-0.0015
763.0064	-0.0038
763.1812	0.0046
763.356	-0.0002
763.5308	0.0025
763.7055	0.0028
763.8803	-0.0032
764.055	-0.0077
764.2297	-0.0037
764.4044	0.004
764.579	0.0025
764.7537	0.0005
764.9283	-0.0043
765.1029	0.0058
765.2775	0.003
765.4521	0.0067
765.6266	-0.0027
765.8011	0.005
765.9756	0.0014
766.1501	0.0031
766.3246	-0.0062
766.4991	-0.0091
766.6735	-0.0031
766.8479	-0.0048
767.0223	0.004
767.1967	-0.0014
767.371	-0.0046
767.5454	-0.0008
767.7197	-0.0021
767.894	0.0011
768.0683	-0.0026
768.2425	-0.0054
768.4168	-0.0082
768.591	0.0057
768.7652	0.0005
768.9394	0.0045
769.1135	0.0075
769.2877	0.0028
769.4618	0.007
769.6359	0.0044
769.81	0.001
769.984	-0.0051
770.1581	0.0016
770.3321	-0.0066
770.5061	-0.0043
770.6801	0.0068
770.8541	-0.0015
771.028	0.0003
771.202	0.0023
771.3759	-0.0004
771.5498	0.0033
771.7236	0.0004
771.8975	-0
772.0713	0.0074
772.2451	0.0074
772.4189	0.0031
772.5927	-0.006
772.7665	-0.0034
772.9402	0.0017
773.1139	-0.002
773.2876	0.0002
773.4613	-0.0064
773.635	0.0029
773.8086	-0.0025
773.9822	0.0011
774.1558	-0.0025
774.3294	0.0103
774.503	0.0013
774.6765	-0.0065
774.8501	0.0067
775.0236	-0.0117
775.1971	-0.0123
775.3705	-0.0003
775.544	0.0035
775.7174	-0.0044
775.8908	-0.0027
776.0642	-0.0015
776.2376	-0.0044
776.4109	-0.0147
776.5843	0.0031
776.7576	0.0042
776.9309	0.0024
777.1041	-0.007
777.2774	0.0025
777.4506	-0.0017
777.6238	-0.0013
777.797	0.0058
777.9702	-0.0072
778.1434	-0.007
778.3165	0.0008
778.4896	-0.0112
778.6627	-0.0031
778.8358	-0.0009
779.0089	0.0052
779.1819	0.0029
779.3549	-0.0067
779.5279	0.0005
779.7009	-0.0067
779.8739	-0.0027
780.0468	-0.0021
780.2197	-0.0044
780.3926	-0.007
780.5655	-0.0081
780.7384	-0.0071
780.9112	-0.0075
781.0841	0.0013
781.2569	0.0011
781.4297	-0.0079
781.6024	0.0028
781.7752	0.002
781.9479	-0.007
782.1206	-0.002
782.2933	-0.009
782.466	-0.0087
782.6386	-0.0016
782.8113	-0.0093
782.9839	-0.0101
783.1565	-0.0169
783.329	-0.0069
783.5016	-0.0083
783.6741	-0.0115
783.8466	-0.0107
784.0191	-0.0038
784.1916	-0.0018
784.3641	-0.0061
784.5365	-0.0021
784.7089	-0.0024
784.8813	0.0036
785.0537	0.0014
785.2261	0.0049
785.3984	-0.0046
785.5707	0.0074
785.743	0.0064
785.9153	0.0045
786.0876	-0.0008
786.2598	0.002
786.432	0.0087
786.6042	0.0066
786.7764	0.0066
786.9486	0.003
787.1207	-0.0044
787.2928	0.0008
787.4649	-0.0036
787.637	-0.0062
787.8091	-0.0005
787.9811	0.0102
788.1532	-0.0099
788.3252	-0.0153
788.4972	-0.0089
788.6691	-0.0008
788.8411	0.0042
789.013	0.0012
789.1849	0.0008
789.3568	-0.0071
789.5287	-0.0047
789.7005	-0.0047
789.8723	0.0049
790.0442	-0.0094
790.2159	0.003
790.3877	-0.0026
790.5595	-0.008
790.7312	0.0078
790.9029	-0.0079
791.0746	-0.0051
791.2463	0.0024
791.4179	-0.0079
791.5896	0.0067
791.7612	-0.0006
791.9328	0.0064
792.1044	-0.002
792.2759	0.0017
792.4474	0.0021
792.619	-0.0118
792.7905	-0.0068
792.9619	-0.0067
793.1334	-0.0027
793.3048	-0.0064
793.4762	-0.005
793.6476	-0.0171
793.819	-0.0084
793.9904	-0.0087
794.1617	-0.0105
794.333	-0.0051
794.5043	-0.0054
794.6756	0.0105
794.8469	0.0082
795.0181	-0.008
795.1893	-0.0041
795.3605	0.0015
795.5317	-0.0048
795.7029	-0.0025
795.874	-0.0029
796.0452	-0.0093
796.2163	-0.0031
796.3873	-0.0076
796.5584	-0.0139
796.7294	-0.0126
796.9005	-0.0049
797.0715	-0.0191
797.2425	-0.0081
797.4134	-0.0091
797.5844	-0.0163
797.7553	-0.007
797.9262	-0.0078
798.0971	-0.0148
798.2679	-0.0049
798.4388	-0.0175
798.6096	-0.0076
798.7804	-0.0182
798.9512	-0.0196
799.122	-0.0156
799.2927	-0.0174
799.4635	-0.0026
799.6342	-0.0074
799.8049	-0.0098
799.9755	-0.0107
800.1462	-0.0236
800.3168	-0.005
800.4874	-0.01
800.658	-0.0154
800.8286	-0.0195
800.9991	-0.0197
801.1696	-0.0163
801.3402	-0.0154
801.5106	-0.0217
801.6811	-0.0207
801.8516	-0.0039
802.022	-0.0214
802.1924	-0.0175
802.3628	-0.019
802.5332	-0.009
802.7035	-0.0273
802.8739	-0.011
803.0442	-0.0196
803.2145	-0.009
803.3847	-0.0179
803.555	-0.0153
803.7252	-0.0151
803.8954	-0.0162
804.0656	-0.0051
804.2358	-0.0181
804.4059	-0.0123
804.5761	-0.0034
804.7462	0.0006
804.9163	-0.0119
805.0864	-0.0083
805.2564	-0.0142
805.4264	-0.015
805.5965	-0.0211
805.7665	-0.0151
805.9364	-0.006
806.1064	-0.0134
806.2763	-0.0041
806.4462	-0.0122
806.6161	-0.0149
806.786	-0.0084
806.9559	-0.0084
807.1257	-0.0094
807.2955	-0.0021
807.4653	0.0015
807.6351	-0.0098
807.8048	-0.0012
807.9746	-0.0015
808.1443	-0.0124
808.314	-0.0049
808.4837	-0.0015
808.6533	-0.0041
808.8229	-0.007
808.9926	0.009
809.1622	-0.0131
809.3317	0.01
809.5013	0.0005
809.6708	0.0024
809.8403	0.0002
810.0098	-0.0019
810.1793	-0.0027
810.3488	0.0108
810.5182	-0.0048
810.6876	0.0049
810.857	-0.0141
811.0264	-0.006
811.1958	0.0021
811.3651	-0.0064
811.5344	-0.0149
811.7037	-0.0228
811.873	-0.0134
812.0422	-0.0057
812.2115	0.0044
812.3807	-0.0066
812.5499	-0.0009
812.7191	-0.0162
812.8882	0.0039
813.0574	-0.0083
813.2265	0.0017
813.3956	-0.0072
813.5646	-0.0012
813.7337	-0.0012
813.9027	0.0024
814.0718	-0.0051
814.2407	0.0119
814.4097	-0.0131
814.5787	-0.0039
814.7476	-0.0065
814.9165	0.0097
815.0854	-0.0087
815.2543	0.0043
815.4232	0.0005
815.592	0.0028
815.7608	-0.0065
815.9296	0.0027
816.0984	-0
816.2671	-0.0061
816.4359	-0.0041
816.6046	0.01
816.7733	0.0009
816.942	-0.0053
817.1106	0.0015
817.2793	-0.0053
817.4479	-0.0054
817.6165	-0.018
817.785	-0.0049
817.9536	-0.0096
818.1221	-0.012
818.2906	-0.0114
818.4591	-0.0219
818.6276	0.0038
818.7961	-0.0098
818.9645	-0.0003
819.1329	-0.0163
819.3013	-0.008
819.4697	0.0005
819.638	-0.0092
819.8064	0.0024
819.9747	0.0124
820.143	-0.012
820.3113	-0.0026
820.4795	0.0125
820.6477	0.0016
820.816	-0.0129
820.9842	0.0036
821.1523	-0.0175
821.3205	-0.0064
821.4886	-0.0092
821.6567	0.001
821.8248	-0.0199
821.9929	-0.0043
822.1609	-0.0082
822.329	-0.012
822.497	-0.003
822.665	-0.009
822.833	-0.0231
823.0009	-0.005
823.1688	-0.0148
823.3367	-0.0081
823.5046	-0.0074
823.6725	-0.0116
823.8404	-0.0095
824.0082	-0.0048
824.176	-0.0027
824.3438	-0.0076
824.5116	0.0025
824.6793	-0.006
824.847	0.0046
825.0147	-0.0057
825.1824	-0.0219
825.3501	-0.0003
825.5177	-0.0214
825.6854	0.0003
825.853	-0.0071
826.0206	0.0009
826.1881	-0.0064
826.3557	-0.0231
826.5232	-0.0049
826.6907	-0.0134
826.8582	0.0006
827.0257	-0.0184
827.1931	-0.0016
827.3605	0.0003
827.528	-0.0031
827.6953	-0.006
827.8627	-0.0079
828.03	-0.0053
828.1974	-0.0024
828.3647	0.0322
828.532	-0.0219
828.6992	0.0015
828.8665	-0.0208
829.0337	-0.0113
829.2009	-0.0201
829.3681	-0.0301
829.5352	-0.0056
829.7024	-0.0022
829.8695	-0.014
830.0366	-0.0123
830.2037	-0.0063
830.3707	-0.0205
830.5378	-0.0018
830.7048	-0.0183
830.8718	-0.0106
831.0388	-0.0078
831.2057	-0.0252
831.3727	-0.029
831.5396	0.0129
831.7065	0.0097
831.8734	0.0124
832.0402	-0.0171
832.2071	0.004
832.3739	-0.0023
832.5407	0.0064
832.7075	-0.0081
832.8742	0.0053
833.041	0.0142
833.2077	-0.026
833.3744	-0.0093
833.541	-0.0075
833.7077	0.0002
833.8743	0.006
834.0409	0.0173
834.2075	-0.0045
834.3741	-0.0003
834.5407	0.0043
834.7072	0.0019
834.8737	-0.0152
835.0402	-0.0185
835.2067	-0.0033
835.3731	0.0002
835.5395	-0.0033
835.706	-0.0131
835.8723	-0.0225
836.0387	-0.0116
836.2051	-0.0132
836.3714	0.0304
836.5377	-0.0024
836.704	-0.0085
836.8703	-0.0332
837.0365	-0.0032
837.2027	-0.0038
837.3689	-0.0072
837.5351	0.0056
837.7013	-0.0117
837.8674	0.0137
838.0335	0.0012
838.1997	-0.0019
838.3657	-0.0026
838.5318	-0.0089
838.6978	-0.009
838.8639	-0.0003
839.0299	0.0119
839.1958	0.0063
839.3618	0.0289
839.5277	-0.0052
839.6937	-0.01
839.8596	0.0011
840.0254	-0.0139
840.1913	-0.0112
840.3571	0.022
840.523	0.0207
840.6888	-0.0132
840.8545	0.0062
841.0203	0.0032
841.186	0.0106
841.3517	0.0099
841.5174	0.0048
841.6831	0.0039
841.8488	0.0068
842.0144	0.0568
842.18	-0.001
842.3456	0.0068
842.5112	0.009
842.6767	0.0158
842.8422	0.0089
843.0077	-0.0165
843.1732	-0.0141
843.3387	-0.0183
843.5042	0.003
843.6696	0.0329
843.835	-0.0256
844.0004	0.0129
844.1657	-0.0035
844.3311	0.0116
844.4964	-0.0023
844.6617	0.023
844.827	0.0067
844.9923	0.0247
845.1575	0.0106
845.3227	-0.0172
845.4879	0.003
845.6531	-0.0048
845.8183	-0.0261
845.9834	-0.0088
846.1485	0.0211
846.3136	-0.0665
846.4787	0.0062
846.6438	-0.003
846.8088	0.0493
846.9738	0.01
847.1388	-0.0082
847.3038	0.0141
847.4687	0.0059
847.6337	0.0392
847.7986	0.0444
847.9635	-0.0119
848.1284	-0.0179
848.2932	0.0426
848.458	0.0158
848.6228	0.0214
848.7876	-0.0425
848.9524	0.0531
849.1172	-0.0261
849.2819	-0.0102
849.4466	-0.0229
849.6113	-0.0123
849.7759	0.0397
849.9406	-0.0049
850.1052	0.006
850.2698	0.0202
850.4344	0.0047
850.599	-0.0164
850.7635	0.0064
850.928	0.0088
851.0925	0.0109
851.257	0.0465
851.4215	-0.0108
851.5859	0.0417
851.7503	-0.0232
851.9147	0.0483
852.0791	0.0227
852.2434	-0.012
852.4078	0.0509
852.5721	-0.0416
852.7364	-0.0834
852.9007	0.0162
853.0649	-0.0083
853.2291	0.0621
853.3934	0.0309
853.5575	0.0093
853.7217	-0.032
853.8859	0.0168
854.05	0.0108
854.2141	-0.0295
854.3782	0.0263
854.5423	0.0099
854.7063	-0.0137
854.8703	-0.0002
855.0343	-0.0074
855.1983	-0.0188
855.3623	-0.0171
855.5262	0.0427
855.6901	-0.0313
855.854	-0.0121
856.0179	0.0692
856.1818	-0.0279
856.3456	-0.0002
856.5094	-0.0332
856.6732	-0.0156
856.837	-0.0141
857.0008	0.0017
857.1645	-0.0505
857.3282	-0.0191
857.4919	-0.0236
857.6556	0.0484
857.8192	-0.0173
857.9828	0.0451
858.1465	0.0846
858.31	-0.0083
858.4736	-0.096
858.6372	0.0101
858.8007	0.01
858.9642	-0.0482
859.1277	0.0179
859.2911	0.043
859.4546	-0.027
859.618	-0.0433
859.7814	0.0311
859.9448	-0.0678
860.1081	-0.0095
860.2715	0.0162
860.4348	0.0153
860.5981	-0.037
860.7614	-0.0431
860.9246	-0.0193
861.0879	-0.0409
861.2511	-0.0005
861.4143	-0.0462
861.5774	-0.0394
861.7406	-0.0575
861.9037	-0.122
862.0668	0.0132
862.2299	-0.035
862.393	0.0433
862.556	0.1181
862.7191	-0.0792
862.8821	-0.0817
863.0451	0.1155
863.208	-0.0487
863.371	0.0967
863.5339	-0.0601
863.6968	0.0053
863.8597	0.004
864.0225	-0.15
864.1854	0.0283
864.3482	-0.159
864.511	0.057
864.6737	0.0684
864.8365	0.0362
864.9992	-0.0298
865.1619	-0.0622
865.3246	-0.0751
865.4873	0.145
865.65	0.0534
865.8126	0.102
865.9752	-0.202
866.1378	-0.061
866.3004	0.0559
866.4629	0.0878
866.6254	0.1014
866.7879	-0.1136
866.9504	-0.0542
867.1129	0.0728
867.2753	-0.0096
867.4377	0.1323
867.6001	0.1219
867.7625	0.0128
867.9249	-0.2395
868.0872	0.1618
868.2495	-0.1134
868.4118	-0.1754
868.5741	-0.0616
868.7363	0.0761
868.8986	0.144
869.0608	-0.0135
869.223	0.1318
869.3851	0.0136
869.5473	-0.1119
869.7094	0.209
869.8715	0.0277
870.0336	0.1089
870.1957	0.0108
870.3577	0.0189
870.5197	-0.4031
870.6817	-0.2226
870.8437	-0.2867
871.0057	-0.3767
871.1676	-0.1034
871.3295	0.1101
871.4914	0.1801
871.6533	0.1685
871.8151	-0.033
871.977	0.415
872.1388	-0.0982
872.3006	-0.037
872.4623	-0.1446
872.6241	-0.0245
872.7858	0.1765
872.9475	-0.1055
873.1092	-0.1108
873.2709	0.0433
873.4325	-0.2726
873.5941	-0.0934
873.7557	0.1186
873.9173	0.0836
874.0789	-0.2105
874.2404	0.3118
874.4019	-0.361
874.5634	-0.1358
874.7249	-0.1913
874.8863	-0.0511
875.0478	-0.3578
875.2092	-0.1447
875.3706	-0.0984
875.5319	0.229
875.6933	-0.2103
875.8546	-0.207
876.0159	-0.175
876.1772	-0.0365
876.3385	-0
876.4997	-0.3233
876.6609	-0.11
876.8221	0.2131
876.9833	-0.4051
877.1445	0.613
877.3056	0.2833
877.4667	-0.6855
877.6278	0.2467
877.7889	-0.1592
877.9499	-0.3545
878.111	-0.0354
878.272	0.2306
878.433	0.243
878.5939	0.5212
878.7549	-0.3021
878.9158	-0.0323
879.0767	0.2028
879.2376	0.1644
879.3984	-0.0629
879.5593	-0.3536
879.7201	-0.0087
879.8809	0.3542
880.0417	-0.2982
880.2024	0.0429
880.3632	-0.2074
880.5239	-0
880.6846	-0.3842
880.8452	0.0671
881.0059	-0.2616
881.1665	-0
881.3271	-0.2408
881.4877	-0.0968
881.6483	-0.8482
881.8088	1.1893
881.9693	0.0629
882.1298	0.0629
882.2903	0.0629
