Data from MonoPyChalIsomerACN10uM450nmA_Absorbance_13-11-32-291.txt Node
Date: Tue Jul 09 13:11:32 BST 2024
User: LASERRRRR
Spectrometer: FLMT03099
Trigger mode: 0
Integration Time (sec): 2.000000E-1
Scans to average: 1
Electric dark correction enabled: true
Nonlinearity correction enabled: false
Boxcar width: 0
XAxis mode: Wavelengths
Number of Pixels in Spectrum: 3648
>>>>>Begin Spectral Data<<<<<
179.3399	-0.0156
179.5586	-0.0156
179.7771	-0.0156
179.9957	-0
180.2143	-0
180.4329	0.0775
180.6514	-0
180.8699	-0.563
181.0885	-0
181.307	-0
181.5255	-0
181.744	-0.315
181.9625	0.7417
182.181	0.3179
182.3994	-0
182.6179	-0.2
182.8363	-0
183.0547	0.1722
183.2732	0.1556
183.4916	0.0074
183.71	0.0494
183.9284	0.0961
184.1467	-0.0511
184.3651	0.1235
184.5835	0.0802
184.8018	-0.0138
185.0201	0.1811
185.2385	0.0011
185.4568	-0.0508
185.6751	0.0863
185.8934	0.024
186.1117	-0.0012
186.3299	-0.1686
186.5482	0.0089
186.7664	0.0501
186.9847	0.1012
187.2029	0.2465
187.4211	0.2472
187.6393	0.0034
187.8575	0.0953
188.0757	0.0448
188.2939	0.093
188.512	-0.0181
188.7302	0.0443
188.9483	0.059
189.1665	0.1347
189.3846	0.0788
189.6027	0.0204
189.8208	0.0744
190.0389	0.1773
190.257	0.4302
190.475	0.3444
190.6931	0.0759
190.9111	0.2511
191.1292	0.2901
191.3472	0.2677
191.5652	0.3534
191.7832	0.4678
192.0012	0.439
192.2192	0.4396
192.4371	0.4991
192.6551	0.4522
192.873	0.3463
193.091	0.479
193.3089	0.5703
193.5268	0.5878
193.7447	0.4239
193.9626	0.476
194.1805	0.7041
194.3984	0.5365
194.6162	0.7151
194.8341	0.6814
195.0519	0.6496
195.2697	0.5383
195.4875	0.5563
195.7054	0.6878
195.9231	0.6359
196.1409	0.6934
196.3587	0.5518
196.5765	0.6711
196.7942	0.7014
197.012	0.6452
197.2297	0.7252
197.4474	0.7029
197.6651	0.7386
197.8828	0.6825
198.1005	0.9067
198.3182	0.778
198.5358	0.7525
198.7535	0.7374
198.9711	0.7915
199.1888	0.7091
199.4064	0.8732
199.624	0.7701
199.8416	0.8625
200.0592	0.8154
200.2767	0.7607
200.4943	0.7623
200.7119	0.7463
200.9294	1.0101
201.1469	0.8829
201.3645	0.6922
201.582	0.8183
201.7995	0.7212
202.017	0.9531
202.2344	0.7909
202.4519	0.9324
202.6694	0.8205
202.8868	0.8573
203.1042	0.8644
203.3217	0.9232
203.5391	0.9455
203.7565	0.9951
203.9739	0.8491
204.1913	0.7893
204.4086	0.9694
204.626	1.1159
204.8433	0.8313
205.0607	0.8687
205.278	0.925
205.4953	1.0409
205.7126	0.8937
205.9299	1.1075
206.1472	0.9518
206.3644	0.9788
206.5817	1.0582
206.7989	1.0976
207.0162	1.0232
207.2334	0.9991
207.4506	1.0027
207.6678	1.019
207.885	1.0879
208.1022	1.1156
208.3194	1.0527
208.5365	1.0219
208.7537	1.0002
208.9708	1.0514
209.1879	1.0501
209.405	1.0576
209.6222	1.0516
209.8392	1.1258
210.0563	1.0478
210.2734	1.0584
210.4905	1.0832
210.7075	0.9541
210.9245	1.0171
211.1416	1.0463
211.3586	1.0515
211.5756	1.0994
211.7926	1.1049
212.0096	1.0279
212.2265	1.0474
212.4435	0.9943
212.6604	1.1143
212.8774	1.0278
213.0943	0.991
213.3112	0.9608
213.5281	1.0557
213.745	0.9349
213.9619	0.9521
214.1788	0.9645
214.3956	0.9467
214.6125	0.9397
214.8293	0.8876
215.0461	0.8774
215.2629	0.8794
215.4798	0.833
215.6965	0.8313
215.9133	0.8605
216.1301	0.8358
216.3469	0.7924
216.5636	0.7808
216.7803	0.7592
216.9971	0.7926
217.2138	0.7136
217.4305	0.7217
217.6472	0.6605
217.8639	0.659
218.0805	0.6402
218.2972	0.5772
218.5138	0.545
218.7305	0.4988
218.9471	0.4782
219.1637	0.4313
219.3803	0.4279
219.5969	0.3829
219.8135	0.3777
220.0301	0.3591
220.2466	0.3722
220.4632	0.3364
220.6797	0.3151
220.8962	0.326
221.1127	0.3029
221.3292	0.2981
221.5457	0.2811
221.7622	0.2866
221.9787	0.2922
222.1951	0.2822
222.4116	0.2751
222.628	0.2612
222.8444	0.2663
223.0608	0.2724
223.2772	0.2646
223.4936	0.2649
223.71	0.2758
223.9264	0.2746
224.1427	0.2637
224.3591	0.2632
224.5754	0.2696
224.7917	0.2758
225.008	0.2702
225.2243	0.2855
225.4406	0.2816
225.6569	0.2725
225.8732	0.3063
226.0894	0.2776
226.3057	0.2907
226.5219	0.2827
226.7381	0.2694
226.9543	0.286
227.1705	0.287
227.3867	0.295
227.6029	0.2963
227.8191	0.3023
228.0352	0.2929
228.2513	0.3158
228.4675	0.3016
228.6836	0.3173
228.8997	0.3064
229.1158	0.3131
229.3319	0.3253
229.548	0.3292
229.764	0.3166
229.9801	0.3316
230.1961	0.3278
230.4121	0.3355
230.6282	0.3317
230.8442	0.3328
231.0602	0.3466
231.2761	0.3405
231.4921	0.3506
231.7081	0.3652
231.924	0.3622
232.14	0.358
232.3559	0.3622
232.5718	0.354
232.7877	0.3569
233.0036	0.3719
233.2195	0.3596
233.4353	0.3646
233.6512	0.383
233.867	0.3823
234.0829	0.3822
234.2987	0.3779
234.5145	0.3863
234.7303	0.3916
234.9461	0.3914
235.1619	0.3902
235.3776	0.3702
235.5934	0.4016
235.8091	0.3901
236.0249	0.3954
236.2406	0.4013
236.4563	0.3902
236.672	0.3954
236.8877	0.4001
237.1034	0.4024
237.319	0.3929
237.5347	0.4026
237.7503	0.4085
237.966	0.4186
238.1816	0.4027
238.3972	0.4157
238.6128	0.4174
238.8284	0.4057
239.0439	0.4075
239.2595	0.4277
239.475	0.4141
239.6906	0.4196
239.9061	0.4131
240.1216	0.4081
240.3371	0.4115
240.5526	0.4215
240.7681	0.4013
240.9836	0.4165
241.199	0.4152
241.4145	0.4091
241.6299	0.3981
241.8453	0.4038
242.0607	0.3932
242.2761	0.397
242.4915	0.3878
242.7069	0.3876
242.9223	0.3736
243.1376	0.3834
243.353	0.359
243.5683	0.371
243.7836	0.3557
243.9989	0.3511
244.2142	0.3329
244.4295	0.3391
244.6448	0.3409
244.86	0.3356
245.0753	0.3239
245.2905	0.308
245.5057	0.308
245.721	0.3127
245.9362	0.2909
246.1514	0.2941
246.3665	0.299
246.5817	0.2772
246.7969	0.2818
247.012	0.2746
247.2271	0.2615
247.4423	0.2671
247.6574	0.2647
247.8725	0.2647
248.0876	0.2615
248.3026	0.2541
248.5177	0.2624
248.7328	0.2443
248.9478	0.2412
249.1628	0.2478
249.3779	0.2357
249.5929	0.2245
249.8079	0.2341
250.0228	0.2319
250.2378	0.2308
250.4528	0.2206
250.6677	0.229
250.8827	0.2219
251.0976	0.2086
251.3125	0.2201
251.5274	0.2005
251.7423	0.2117
251.9572	0.2092
252.172	0.2052
252.3869	0.2093
252.6017	0.2035
252.8166	0.2141
253.0314	0.2062
253.2462	0.2116
253.461	0.2056
253.6758	0.2045
253.8906	0.204
254.1053	0.2058
254.3201	0.209
254.5348	0.2003
254.7496	0.202
254.9643	0.1884
255.179	0.2044
255.3937	0.204
255.6083	0.2064
255.823	0.1935
256.0377	0.1924
256.2523	0.1958
256.467	0.1983
256.6816	0.1911
256.8962	0.2005
257.1108	0.1964
257.3254	0.1888
257.54	0.1962
257.7545	0.1959
257.9691	0.1961
258.1836	0.1967
258.3981	0.2
258.6127	0.1962
258.8272	0.1884
259.0417	0.1943
259.2561	0.1964
259.4706	0.1855
259.6851	0.1975
259.8995	0.196
260.114	0.1929
260.3284	0.2012
260.5428	0.1967
260.7572	0.2032
260.9716	0.1994
261.186	0.1988
261.4003	0.2072
261.6147	0.2054
261.829	0.1977
262.0433	0.1983
262.2577	0.1943
262.472	0.2077
262.6863	0.1888
262.9005	0.1943
263.1148	0.1956
263.3291	0.1919
263.5433	0.1893
263.7576	0.1848
263.9718	0.1876
264.186	0.187
264.4002	0.1879
264.6144	0.1952
264.8286	0.1804
265.0427	0.1799
265.2569	0.1872
265.471	0.1747
265.6851	0.1857
265.8993	0.1795
266.1134	0.1757
266.3275	0.1904
266.5415	0.1799
266.7556	0.1888
266.9697	0.1862
267.1837	0.1796
267.3978	0.1899
267.6118	0.1959
267.8258	0.1918
268.0398	0.1987
268.2538	0.197
268.4677	0.2006
268.6817	0.198
268.8957	0.1966
269.1096	0.1897
269.3235	0.1852
269.5374	0.1827
269.7514	0.1667
269.9652	0.1761
270.1791	0.1612
270.393	0.1624
270.6068	0.1565
270.8207	0.1529
271.0345	0.1611
271.2483	0.1564
271.4622	0.1531
271.676	0.1521
271.8897	0.1429
272.1035	0.1505
272.3173	0.1551
272.531	0.1595
272.7448	0.1471
272.9585	0.1499
273.1722	0.1423
273.3859	0.1506
273.5996	0.1457
273.8133	0.1575
274.0269	0.1528
274.2406	0.1443
274.4542	0.1508
274.6679	0.1541
274.8815	0.1555
275.0951	0.1492
275.3087	0.1508
275.5223	0.1469
275.7358	0.1492
275.9494	0.1548
276.1629	0.1531
276.3765	0.1511
276.59	0.1562
276.8035	0.1575
277.017	0.154
277.2305	0.1542
277.444	0.1545
277.6574	0.1533
277.8709	0.159
278.0843	0.1609
278.2978	0.1493
278.5112	0.1632
278.7246	0.1548
278.938	0.1543
279.1513	0.1591
279.3647	0.1559
279.5781	0.1479
279.7914	0.1513
280.0047	0.1501
280.2181	0.1594
280.4314	0.1592
280.6447	0.1578
280.8579	0.1636
281.0712	0.1629
281.2845	0.1541
281.4977	0.159
281.711	0.1692
281.9242	0.1639
282.1374	0.1576
282.3506	0.1538
282.5638	0.1581
282.7769	0.1672
282.9901	0.1567
283.2033	0.161
283.4164	0.1569
283.6295	0.1592
283.8426	0.1681
284.0557	0.1549
284.2688	0.1569
284.4819	0.1549
284.695	0.1599
284.908	0.1521
285.1211	0.1633
285.3341	0.1646
285.5471	0.1647
285.7601	0.1515
285.9731	0.159
286.1861	0.158
286.3991	0.1654
286.612	0.1696
286.825	0.159
287.0379	0.156
287.2508	0.1589
287.4637	0.164
287.6766	0.1514
287.8895	0.1596
288.1024	0.1536
288.3152	0.1676
288.5281	0.1584
288.7409	0.153
288.9538	0.1618
289.1666	0.1642
289.3794	0.1556
289.5922	0.1633
289.8049	0.163
290.0177	0.1572
290.2304	0.1596
290.4432	0.1551
290.6559	0.1608
290.8686	0.1524
291.0813	0.1648
291.294	0.1621
291.5067	0.156
291.7194	0.1553
291.932	0.158
292.1447	0.1567
292.3573	0.1557
292.5699	0.1615
292.7825	0.1554
292.9951	0.1621
293.2077	0.1461
293.4203	0.1442
293.6328	0.1616
293.8454	0.1619
294.0579	0.1538
294.2704	0.1579
294.4829	0.1575
294.6954	0.1561
294.9079	0.1577
295.1204	0.1591
295.3328	0.1497
295.5453	0.1552
295.7577	0.1489
295.9701	0.1434
296.1825	0.1565
296.3949	0.1464
296.6073	0.1622
296.8197	0.1503
297.0321	0.1523
297.2444	0.1493
297.4567	0.1454
297.6691	0.1531
297.8814	0.1507
298.0937	0.1467
298.306	0.1513
298.5182	0.1494
298.7305	0.1543
298.9428	0.1514
299.155	0.1521
299.3672	0.1537
299.5794	0.1592
299.7916	0.1604
300.0038	0.1513
300.216	0.1523
300.4282	0.1482
300.6403	0.145
300.8525	0.1547
301.0646	0.1508
301.2767	0.1512
301.4888	0.1474
301.7009	0.1493
301.913	0.1513
302.125	0.1531
302.3371	0.154
302.5491	0.1509
302.7612	0.1589
302.9732	0.1533
303.1852	0.1459
303.3972	0.1478
303.6092	0.1513
303.8211	0.1556
304.0331	0.1436
304.245	0.1483
304.457	0.1533
304.6689	0.1502
304.8808	0.1456
305.0927	0.1486
305.3046	0.1398
305.5164	0.1371
305.7283	0.1454
305.9401	0.1477
306.152	0.1434
306.3638	0.1456
306.5756	0.1347
306.7874	0.143
306.9992	0.1376
307.2109	0.1295
307.4227	0.1326
307.6344	0.1371
307.8462	0.1342
308.0579	0.124
308.2696	0.1281
308.4813	0.1289
308.693	0.1285
308.9046	0.1288
309.1163	0.1179
309.328	0.1177
309.5396	0.1243
309.7512	0.1223
309.9628	0.1189
310.1744	0.1178
310.386	0.1072
310.5976	0.1148
310.8091	0.116
311.0207	0.1133
311.2322	0.1093
311.4437	0.1244
311.6552	0.1099
311.8667	0.1038
312.0782	0.1196
312.2897	0.1082
312.5012	0.1168
312.7126	0.1038
312.924	0.0985
313.1355	0.1046
313.3469	0.1064
313.5583	0.1086
313.7696	0.1063
313.981	0.1025
314.1924	0.1036
314.4037	0.1018
314.6151	0.0866
314.8264	0.1001
315.0377	0.1058
315.249	0.1073
315.4603	0.1066
315.6716	0.1016
315.8828	0.1072
316.0941	0.0966
316.3053	0.0983
316.5165	0.0995
316.7277	0.0994
316.9389	0.1024
317.1501	0.099
317.3613	0.0989
317.5724	0.0936
317.7836	0.1014
317.9947	0.1043
318.2058	0.1017
318.417	0.0963
318.6281	0.1055
318.8391	0.0955
319.0502	0.0975
319.2613	0.0995
319.4723	0.0961
319.6834	0.0911
319.8944	0.1068
320.1054	0.1036
320.3164	0.1077
320.5274	0.1039
320.7383	0.0995
320.9493	0.1018
321.1602	0.1012
321.3712	0.1065
321.5821	0.0978
321.793	0.0901
322.0039	0.0957
322.2148	0.1014
322.4257	0.0985
322.6365	0.1016
322.8474	0.111
323.0582	0.1101
323.269	0.1005
323.4798	0.1053
323.6906	0.1089
323.9014	0.1092
324.1122	0.105
324.3229	0.1068
324.5337	0.0946
324.7444	0.1069
324.9551	0.1048
325.1658	0.0992
325.3765	0.1096
325.5872	0.1039
325.7979	0.1106
326.0085	0.1133
326.2192	0.1029
326.4298	0.1116
326.6404	0.1073
326.851	0.1095
327.0616	0.1084
327.2722	0.1036
327.4828	0.1056
327.6933	0.1057
327.9039	0.1067
328.1144	0.1085
328.3249	0.1129
328.5354	0.1094
328.7459	0.1017
328.9564	0.1063
329.1669	0.1086
329.3773	0.1125
329.5878	0.116
329.7982	0.1164
330.0086	0.1078
330.219	0.1135
330.4294	0.1076
330.6398	0.1089
330.8502	0.1111
331.0605	0.1089
331.2708	0.101
331.4812	0.1159
331.6915	0.1031
331.9018	0.1052
332.1121	0.1119
332.3224	0.1126
332.5326	0.1044
332.7429	0.11
332.9531	0.1102
333.1633	0.1168
333.3735	0.1174
333.5837	0.1096
333.7939	0.1126
334.0041	0.1079
334.2143	0.1166
334.4244	0.1095
334.6346	0.1061
334.8447	0.1112
335.0548	0.1103
335.2649	0.1105
335.475	0.1027
335.685	0.1175
335.8951	0.1145
336.1051	0.1045
336.3152	0.1172
336.5252	0.1074
336.7352	0.1181
336.9452	0.1145
337.1552	0.1131
337.3652	0.1126
337.5751	0.1129
337.7851	0.1069
337.995	0.1132
338.2049	0.1197
338.4148	0.1073
338.6247	0.1135
338.8346	0.116
339.0445	0.1166
339.2543	0.1182
339.4642	0.1175
339.674	0.1202
339.8838	0.1187
340.0936	0.1163
340.3034	0.1346
340.5132	0.1195
340.7229	0.1234
340.9327	0.129
341.1424	0.115
341.3522	0.1252
341.5619	0.123
341.7716	0.126
341.9813	0.1163
342.1909	0.1239
342.4006	0.1207
342.6102	0.1254
342.8199	0.1285
343.0295	0.1167
343.2391	0.1295
343.4487	0.1305
343.6583	0.1261
343.8679	0.1261
344.0774	0.1302
344.287	0.1381
344.4965	0.1225
344.706	0.1414
344.9155	0.1391
345.125	0.1402
345.3345	0.1337
345.544	0.1211
345.7534	0.129
345.9629	0.128
346.1723	0.1405
346.3817	0.1364
346.5911	0.1347
346.8005	0.1362
347.0099	0.126
347.2193	0.1308
347.4286	0.1418
347.638	0.1359
347.8473	0.1331
348.0566	0.1339
348.2659	0.1281
348.4752	0.1341
348.6845	0.1358
348.8937	0.145
349.103	0.1381
349.3122	0.1419
349.5214	0.1376
349.7306	0.1424
349.9398	0.1313
350.149	0.1364
350.3582	0.1306
350.5674	0.1488
350.7765	0.1384
350.9856	0.1334
351.1948	0.1462
351.4039	0.1416
351.613	0.1349
351.822	0.1441
352.0311	0.1399
352.2402	0.1482
352.4492	0.1435
352.6582	0.1527
352.8672	0.1464
353.0762	0.1549
353.2852	0.1548
353.4942	0.152
353.7032	0.147
353.9121	0.1472
354.1211	0.149
354.33	0.1398
354.5389	0.1485
354.7478	0.1499
354.9567	0.1476
355.1655	0.1488
355.3744	0.1537
355.5833	0.1546
355.7921	0.1522
356.0009	0.147
356.2097	0.1505
356.4185	0.158
356.6273	0.1627
356.8361	0.1512
357.0448	0.1601
357.2536	0.1604
357.4623	0.1482
357.671	0.1641
357.8797	0.1657
358.0884	0.1598
358.2971	0.1591
358.5057	0.163
358.7144	0.1577
358.923	0.1786
359.1316	0.1654
359.3402	0.1754
359.5488	0.1607
359.7574	0.1735
359.966	0.1781
360.1746	0.177
360.3831	0.1783
360.5916	0.1804
360.8002	0.176
361.0087	0.1743
361.2172	0.1751
361.4256	0.171
361.6341	0.1765
361.8426	0.1752
362.051	0.1708
362.2594	0.1707
362.4678	0.1744
362.6762	0.1797
362.8846	0.1947
363.093	0.1747
363.3014	0.1795
363.5097	0.1797
363.718	0.1946
363.9264	0.1779
364.1347	0.1963
364.343	0.1749
364.5513	0.1822
364.7595	0.1844
364.9678	0.1831
365.176	0.1897
365.3842	0.1786
365.5925	0.1827
365.8007	0.1738
366.0089	0.2039
366.217	0.1981
366.4252	0.2021
366.6333	0.1826
366.8415	0.1902
367.0496	0.1996
367.2577	0.2024
367.4658	0.197
367.6739	0.2021
367.882	0.1926
368.09	0.1964
368.2981	0.2075
368.5061	0.1947
368.7141	0.1965
368.9221	0.1977
369.1301	0.2079
369.3381	0.2059
369.5461	0.2066
369.754	0.2041
369.962	0.206
370.1699	0.207
370.3778	0.2033
370.5857	0.2023
370.7936	0.205
371.0015	0.2043
371.2093	0.1957
371.4172	0.2151
371.625	0.1992
371.8328	0.2165
372.0406	0.2065
372.2484	0.2133
372.4562	0.2048
372.664	0.2076
372.8717	0.2057
373.0795	0.2114
373.2872	0.2093
373.4949	0.2064
373.7026	0.2121
373.9103	0.2148
374.118	0.2149
374.3256	0.2092
374.5333	0.2008
374.7409	0.2089
374.9485	0.2155
375.1561	0.2151
375.3637	0.2167
375.5713	0.2135
375.7789	0.2122
375.9864	0.2197
376.194	0.222
376.4015	0.2247
376.609	0.2202
376.8165	0.2181
377.024	0.2102
377.2315	0.2171
377.4389	0.2109
377.6464	0.2143
377.8538	0.2149
378.0612	0.2189
378.2686	0.2204
378.476	0.2274
378.6834	0.2307
378.8908	0.2242
379.0981	0.235
379.3055	0.2231
379.5128	0.2186
379.7201	0.2237
379.9274	0.2194
380.1347	0.23
380.342	0.2231
380.5492	0.2214
380.7565	0.2272
380.9637	0.2405
381.1709	0.2324
381.3781	0.2218
381.5853	0.2259
381.7925	0.222
381.9997	0.2354
382.2068	0.2314
382.4139	0.2303
382.6211	0.2277
382.8282	0.2341
383.0353	0.217
383.2424	0.2257
383.4494	0.2345
383.6565	0.2401
383.8635	0.2482
384.0706	0.2382
384.2776	0.2387
384.4846	0.2421
384.6916	0.232
384.8986	0.2294
385.1055	0.2458
385.3125	0.2444
385.5194	0.2382
385.7263	0.2372
385.9333	0.2351
386.1402	0.2414
386.347	0.2378
386.5539	0.2295
386.7608	0.2296
386.9676	0.2344
387.1744	0.2356
387.3813	0.2312
387.5881	0.2338
387.7948	0.2289
388.0016	0.2371
388.2084	0.233
388.4151	0.2292
388.6219	0.2323
388.8286	0.2321
389.0353	0.2297
389.242	0.2167
389.4487	0.2217
389.6553	0.2247
389.862	0.2224
390.0686	0.2191
390.2753	0.2213
390.4819	0.2153
390.6885	0.2128
390.8951	0.2234
391.1016	0.2225
391.3082	0.2237
391.5147	0.2203
391.7213	0.2115
391.9278	0.2193
392.1343	0.2207
392.3408	0.2145
392.5473	0.2197
392.7537	0.2187
392.9602	0.1999
393.1666	0.2132
393.373	0.2105
393.5794	0.2079
393.7858	0.196
393.9922	0.2003
394.1986	0.2011
394.4049	0.2076
394.6113	0.2095
394.8176	0.1982
395.0239	0.2018
395.2302	0.2003
395.4365	0.2009
395.6428	0.1926
395.8491	0.2001
396.0553	0.1968
396.2615	0.1968
396.4678	0.1998
396.674	0.2014
396.8802	0.2047
397.0863	0.1979
397.2925	0.1955
397.4987	0.1875
397.7048	0.1868
397.9109	0.1971
398.117	0.1892
398.3231	0.1971
398.5292	0.1968
398.7353	0.2002
398.9413	0.1901
399.1474	0.1937
399.3534	0.1816
399.5594	0.1943
399.7654	0.1927
399.9714	0.1909
400.1774	0.1916
400.3833	0.1913
400.5893	0.1931
400.7952	0.1729
401.0011	0.1845
401.207	0.1887
401.4129	0.1732
401.6188	0.1795
401.8247	0.1807
402.0305	0.1799
402.2364	0.1926
402.4422	0.1976
402.648	0.201
402.8538	0.1799
403.0596	0.1816
403.2654	0.1757
403.4711	0.1876
403.6768	0.194
403.8826	0.1894
404.0883	0.187
404.294	0.1854
404.4997	0.1972
404.7054	0.1871
404.911	0.1846
405.1167	0.1969
405.3223	0.1856
405.5279	0.1885
405.7335	0.1926
405.9391	0.1864
406.1447	0.1888
406.3502	0.1875
406.5558	0.1823
406.7613	0.1852
406.9668	0.1874
407.1724	0.182
407.3778	0.1851
407.5833	0.1844
407.7888	0.213
407.9942	0.1973
408.1997	0.1919
408.4051	0.176
408.6105	0.1788
408.8159	0.2003
409.0213	0.1848
409.2267	0.1902
409.432	0.1871
409.6374	0.1975
409.8427	0.1933
410.048	0.1928
410.2533	0.1755
410.4586	0.1982
410.6639	0.1715
410.8691	0.1798
411.0744	0.1961
411.2796	0.1867
411.4848	0.1642
411.69	0.1926
411.8952	0.1809
412.1004	0.1741
412.3056	0.1921
412.5107	0.1944
412.7158	0.1884
412.921	0.1817
413.1261	0.1796
413.3312	0.1961
413.5362	0.1724
413.7413	0.1864
413.9464	0.1811
414.1514	0.169
414.3564	0.1882
414.5614	0.1831
414.7664	0.181
414.9714	0.1675
415.1764	0.1792
415.3813	0.1919
415.5863	0.1738
415.7912	0.1848
415.9961	0.1884
416.201	0.1892
416.4059	0.1761
416.6108	0.165
416.8156	0.1757
417.0205	0.1845
417.2253	0.1769
417.4301	0.181
417.6349	0.1868
417.8397	0.1763
418.0445	0.1884
418.2492	0.1828
418.454	0.1803
418.6587	0.1758
418.8634	0.1775
419.0681	0.1814
419.2728	0.1768
419.4775	0.1754
419.6822	0.1744
419.8868	0.1749
420.0915	0.1753
420.2961	0.1654
420.5007	0.1717
420.7053	0.1697
420.9099	0.1636
421.1144	0.1711
421.319	0.1699
421.5235	0.1759
421.728	0.1694
421.9325	0.1561
422.137	0.1542
422.3415	0.1746
422.546	0.1619
422.7504	0.1738
422.9549	0.1693
423.1593	0.1671
423.3637	0.1673
423.5681	0.1622
423.7725	0.1549
423.9769	0.1566
424.1812	0.1631
424.3856	0.149
424.5899	0.1602
424.7942	0.1586
424.9985	0.1597
425.2028	0.1407
425.4071	0.1605
425.6113	0.1556
425.8156	0.1462
426.0198	0.1613
426.224	0.1364
426.4282	0.1397
426.6324	0.1445
426.8366	0.1469
427.0407	0.1383
427.2449	0.1505
427.449	0.1392
427.6531	0.141
427.8572	0.1278
428.0613	0.1297
428.2654	0.1308
428.4694	0.1498
428.6735	0.1415
428.8775	0.131
429.0815	0.1507
429.2855	0.1405
429.4895	0.135
429.6935	0.1359
429.8975	0.1339
430.1014	0.1252
430.3053	0.1191
430.5093	0.1286
430.7132	0.1249
430.9171	0.129
431.1209	0.1213
431.3248	0.1186
431.5286	0.1245
431.7325	0.1206
431.9363	0.1223
432.1401	0.1261
432.3439	0.1149
432.5477	0.1159
432.7514	0.1134
432.9552	0.1065
433.1589	0.1139
433.3627	0.1113
433.5664	0.1083
433.7701	0.1123
433.9737	0.0957
434.1774	0.1107
434.3811	0.0927
434.5847	0.1029
434.7883	0.0971
434.9919	0.1007
435.1955	0.0812
435.3991	0.1017
435.6027	0.1041
435.8062	0.0945
436.0098	0.0975
436.2133	0.0802
436.4168	0.0981
436.6203	0.0934
436.8238	0.0846
437.0272	0.0785
437.2307	0.0842
437.4341	0.0826
437.6375	0.0825
437.841	0.0729
438.0443	0.0818
438.2477	0.0765
438.4511	0.0806
438.6545	0.0675
438.8578	0.078
439.0611	0.0756
439.2644	0.0916
439.4677	0.0713
439.671	0.0737
439.8743	0.0746
440.0775	0.0627
440.2808	0.0619
440.484	0.0769
440.6872	0.0534
440.8904	0.061
441.0936	0.0616
441.2967	0.0508
441.4999	0.0552
441.703	0.0396
441.9062	0.0568
442.1093	0.0568
442.3124	0.061
442.5155	0.0546
442.7185	0.0425
442.9216	0.0534
443.1246	0.0571
443.3276	0.0509
443.5307	0.0452
443.7337	0.05
443.9366	0.0514
444.1396	0.0489
444.3426	0.0358
444.5455	0.0429
444.7484	0.0301
444.9513	0.0371
445.1542	0.0412
445.3571	0.043
445.56	0.039
445.7628	0.0358
445.9657	0.04
446.1685	0.0358
446.3713	0.0354
446.5741	0.0406
446.7769	0.0481
446.9797	0.0368
447.1824	0.0357
447.3852	0.0354
447.5879	0.0307
447.7906	0.0351
447.9933	0.0294
448.196	0.0385
448.3986	0.0245
448.6013	0.0284
448.8039	0.0223
449.0066	0.03
449.2092	0.0262
449.4118	0.0211
449.6143	0.0171
449.8169	0.0143
450.0195	0.0183
450.222	0.0101
450.4245	0.0129
450.627	0.0306
450.8295	0.0217
451.032	0.0261
451.2345	0.013
451.4369	0.0256
451.6394	0.0126
451.8418	0.0128
452.0442	0.0174
452.2466	0.0174
452.449	0.0144
452.6513	0.0242
452.8537	0.0115
453.056	0.0092
453.2583	0.0139
453.4607	0.0236
453.663	0.014
453.8652	0.0062
454.0675	0.0099
454.2697	0.0204
454.472	0.0082
454.6742	0.0126
454.8764	0.0069
455.0786	0.0145
455.2808	0.0169
455.4829	0.003
455.6851	-0.0016
455.8872	0.0088
456.0893	0.0077
456.2915	0.0045
456.4935	0.0055
456.6956	0.0087
456.8977	0.0102
457.0997	0.0104
457.3018	0.0053
457.5038	0
457.7058	-0.0003
457.9078	-0.0011
458.1098	0.0055
458.3117	0.0052
458.5137	0.0098
458.7156	0.024
458.9175	0.0027
459.1194	0.0105
459.3213	0.0103
459.5232	0.0113
459.725	-0.0086
459.9269	-0.0004
460.1287	0.0064
460.3305	-0.0058
460.5323	0.0079
460.7341	0.007
460.9359	-0.0004
461.1376	0.0028
461.3394	-0.0007
461.5411	0.0009
461.7428	-0.0065
461.9445	0.0031
462.1462	0.0011
462.3479	-0.0042
462.5495	0.0105
462.7512	-0.0065
462.9528	-0.0003
463.1544	-0.0063
463.356	0.0011
463.5576	-0.0107
463.7592	-0.0025
463.9607	-0.0011
464.1623	0.0024
464.3638	0.0007
464.5653	0.0067
464.7668	0.0005
464.9683	0.0079
465.1697	-0.002
465.3712	-0.0092
465.5726	0.0043
465.7741	-0.0047
465.9755	-0.0036
466.1769	-0.0136
466.3782	-0.0022
466.5796	-0.0074
466.7809	0.0032
466.9823	-0.0108
467.1836	0.0005
467.3849	0.0017
467.5862	-0.0042
467.7875	-0.0106
467.9887	0.0078
468.19	-0.004
468.3912	0.0011
468.5924	0.0019
468.7936	-0.0088
468.9948	0.0066
469.196	-0.008
469.3972	-0.0004
469.5983	0.0127
469.7994	-0.0134
470.0006	-0.0113
470.2017	-0.001
470.4027	0.0003
470.6038	0.0033
470.8049	-0.0063
471.0059	-0.0068
471.2069	0.0105
471.408	-0.0041
471.6089	-0.0095
471.8099	-0.0079
472.0109	-0.0073
472.2119	-0.0092
472.4128	-0.0013
472.6137	-0.0035
472.8146	-0.0048
473.0155	-0.012
473.2164	-0.0224
473.4173	-0.0141
473.6181	-0.0021
473.819	-0.0038
474.0198	-0.0062
474.2206	0.0021
474.4214	-0.0103
474.6222	-0.008
474.8229	-0.0086
475.0237	-0.0004
475.2244	-0.0081
475.4251	-0.0062
475.6258	0.0086
475.8265	-0.0004
476.0272	-0.0053
476.2278	0.0007
476.4285	0.0015
476.6291	-0.008
476.8297	-0.0103
477.0303	-0.0149
477.2309	-0.0001
477.4315	0.0037
477.632	-0.013
477.8326	0.0029
478.0331	-0.0089
478.2336	0.0004
478.4341	-0.0063
478.6346	-0.0002
478.8351	-0.0012
479.0355	-0.013
479.236	-0.0106
479.4364	-0.0092
479.6368	0.0084
479.8372	-0.0035
480.0376	-0.0067
480.2379	-0.0071
480.4383	-0.0089
480.6386	-0.012
480.8389	-0.0077
481.0392	-0.003
481.2395	-0.0043
481.4398	-0.0075
481.6401	-0.0065
481.8403	-0.0099
482.0405	-0.017
482.2408	0.0047
482.441	-0.008
482.6411	-0.0032
482.8413	-0.0061
483.0415	-0.0117
483.2416	-0.0012
483.4417	-0.0049
483.6419	-0.0021
483.8419	-0.0049
484.042	-0.0016
484.2421	-0.0033
484.4422	-0.0065
484.6422	-0.0065
484.8422	-0.0063
485.0422	-0.0045
485.2422	-0.0079
485.4422	-0.0101
485.6422	-0.0056
485.8421	0.0013
486.042	-0.0077
486.242	-0.0053
486.4419	-0.0049
486.6417	-0.0007
486.8416	-0.0005
487.0415	-0.0071
487.2413	-0.0082
487.4411	-0.0043
487.641	-0.0003
487.8408	-0.0098
488.0405	-0.0094
488.2403	-0.0051
488.4401	-0.0068
488.6398	-0.0069
488.8395	-0.005
489.0392	-0.0023
489.2389	-0.0025
489.4386	-0.0082
489.6383	0.0007
489.8379	-0.008
490.0376	-0.0019
490.2372	-0.0063
490.4368	-0.0086
490.6364	-0.0066
490.836	-0.0085
491.0355	-0.0019
491.2351	-0.0114
491.4346	-0.005
491.6341	-0.0052
491.8336	-0.0085
492.0331	-0.0017
492.2326	-0.0119
492.432	-0.0071
492.6315	-0.0022
492.8309	-0.0049
493.0303	-0.0105
493.2297	-0.0089
493.4291	-0.0119
493.6284	0.0025
493.8278	-0.0067
494.0271	-0.0003
494.2264	0.0011
494.4257	-0.0082
494.625	-0.0044
494.8243	-0.006
495.0236	-0.0149
495.2228	-0.0046
495.422	-0.0047
495.6213	-0.0043
495.8205	-0.003
496.0196	-0.0104
496.2188	-0.0053
496.418	-0.0063
496.6171	-0.0021
496.8162	-0.0017
497.0153	0.0019
497.2144	-0.0044
497.4135	-0.0023
497.6126	-0.0051
497.8116	-0.0042
498.0107	-0.005
498.2097	-0.0087
498.4087	-0.0106
498.6077	-0.0047
498.8067	-0.009
499.0056	-0.0064
499.2046	-0.0017
499.4035	-0.0106
499.6024	-0.0079
499.8013	-0.0007
500.0002	-0.005
500.199	-0.0048
500.3979	-0.0012
500.5967	-0.0084
500.7956	-0.0159
500.9944	-0.001
501.1932	-0.0075
501.3919	-0.0062
501.5907	-0.0092
501.7895	-0.0033
501.9882	-0.0089
502.1869	-0.0063
502.3856	-0.0001
502.5843	-0.0095
502.783	-0.005
502.9816	-0.0117
503.1803	-0.0057
503.3789	-0.0018
503.5775	0.0007
503.7761	-0.0051
503.9747	-0.0056
504.1732	-0.0038
504.3718	0.0024
504.5703	-0.0048
504.7689	-0.0041
504.9674	-0.0039
505.1658	-0.003
505.3643	-0.0045
505.5628	0.0046
505.7612	-0.0123
505.9597	-0.0114
506.1581	-0.004
506.3565	-0.0086
506.5549	-0.0013
506.7532	-0.0079
506.9516	-0.006
507.1499	-0.0021
507.3482	-0.0006
507.5465	0
507.7448	-0.0043
507.9431	-0.0073
508.1414	-0.0027
508.3396	-0.0034
508.5379	0.0021
508.7361	0.0017
508.9343	-0.0097
509.1325	-0.0056
509.3306	0.0008
509.5288	-0.0001
509.7269	-0.0119
509.9251	-0.0081
510.1232	0
510.3213	-0.0113
510.5193	0.0008
510.7174	-0.0018
510.9154	-0.0029
511.1135	-0.0028
511.3115	-0.0078
511.5095	-0.0106
511.7075	-0.0086
511.9055	-0.0054
512.1034	-0.0084
512.3014	-0.0037
512.4993	-0.0121
512.6972	-0.0053
512.8951	-0.0088
513.093	-0.0092
513.2908	-0.002
513.4887	0.0025
513.6865	-0.0049
513.8844	-0.0057
514.0822	-0.0032
514.2799	-0.0109
514.4777	-0.0016
514.6755	-0.003
514.8732	-0.005
515.0709	-0.0075
515.2687	-0.0083
515.4664	-0.0052
515.664	-0.0103
515.8617	-0.008
516.0594	-0.0013
516.257	-0.0059
516.4546	-0.0085
516.6522	-0.0072
516.8498	-0.0125
517.0474	-0.0052
517.2449	-0.0055
517.4425	-0.0031
517.64	-0.0035
517.8375	-0.0095
518.035	-0.0045
518.2325	-0.0115
518.43	-0.0014
518.6274	-0.0074
518.8249	-0.0052
519.0223	-0.0111
519.2197	-0.0071
519.4171	-0.003
519.6145	-0.002
519.8118	-0.0042
520.0092	0.0005
520.2065	-0.0166
520.4038	-0.0045
520.6011	-0.0114
520.7984	-0.0081
520.9956	-0.0099
521.1929	-0.0057
521.3901	-0.0047
521.5874	-0.0047
521.7846	0.0041
521.9818	-0.0054
522.1789	-0.0102
522.3761	-0.0048
522.5732	-0.007
522.7704	-0.0098
522.9675	-0.0079
523.1646	-0.0028
523.3617	0.004
523.5587	-0.0056
523.7558	0.0017
523.9528	-0.0054
524.1498	-0.0097
524.3468	-0.0042
524.5438	-0.006
524.7408	-0.0109
524.9378	-0.0119
525.1347	0
525.3316	-0.0013
525.5285	-0.0069
525.7254	-0.0093
525.9223	-0.0028
526.1192	-0.0038
526.316	-0.0048
526.5129	-0.0033
526.7097	-0.0066
526.9065	-0.0044
527.1033	-0.0031
527.3	-0.0033
527.4968	-0.012
527.6935	-0.0017
527.8903	-0.0021
528.087	-0.0182
528.2837	-0.0055
528.4804	-0.0033
528.677	-0.0048
528.8737	-0.014
529.0703	0.0004
529.2669	0.0045
529.4635	-0.0011
529.6601	-0.0049
529.8567	-0.0011
530.0532	-0.0018
530.2498	-0.0063
530.4463	-0.0076
530.6428	-0.0013
530.8393	-0.0016
531.0358	-0.008
531.2322	-0.0065
531.4287	-0.0151
531.6251	-0.0068
531.8215	0.0043
532.0179	-0.01
532.2143	-0.0021
532.4107	0.0003
532.607	-0.0024
532.8034	-0.0065
532.9997	-0.0022
533.196	-0.0095
533.3923	-0.0003
533.5886	-0.0056
533.7848	-0.0045
533.9811	-0.0026
534.1773	-0.0129
534.3735	-0.0019
534.5697	-0.001
534.7659	-0.0022
534.9621	-0.0021
535.1582	-0.0063
535.3544	-0.0067
535.5505	-0.0036
535.7466	-0.0084
535.9427	-0.0051
536.1387	0.0004
536.3348	0.0016
536.5308	-0.0019
536.7269	0.0003
536.9229	-0.001
537.1189	-0.011
537.3148	-0.0037
537.5108	-0.003
537.7068	-0.0046
537.9027	-0.0043
538.0986	-0.0014
538.2945	-0.0079
538.4904	-0.0088
538.6863	-0.0028
538.8821	-0.0057
539.078	-0.0098
539.2738	-0.0059
539.4696	-0.0131
539.6654	-0.004
539.8611	-0.0057
540.0569	-0.0041
540.2526	-0.0038
540.4484	0.0086
540.6441	-0.002
540.8398	-0.0081
541.0355	-0.0023
541.2311	-0.0032
541.4268	0.0017
541.6224	0.0015
541.818	-0.0119
542.0136	-0.0029
542.2092	-0.0095
542.4048	-0.0114
542.6003	-0.0048
542.7959	0.0005
542.9914	-0.0029
543.1869	-0.0064
543.3824	-0.0103
543.5779	-0.0114
543.7734	-0.0167
543.9688	-0.0146
544.1642	-0.011
544.3596	-0.0042
544.555	0.0004
544.7504	-0.0028
544.9458	-0.0004
545.1411	0.0045
545.3365	-0.0042
545.5318	0.0048
545.7271	0.0069
545.9224	0.0022
546.1177	-0.0149
546.3129	0.0024
546.5081	-0.0002
546.7034	-0.0081
546.8986	-0.0003
547.0938	0.0028
547.289	-0.0013
547.4841	-0.0032
547.6793	-0.0097
547.8744	0.001
548.0695	-0.0089
548.2646	-0.0081
548.4597	-0.0053
548.6548	-0.0045
548.8498	-0.0032
549.0448	-0.0041
549.2399	0.0005
549.4349	-0.002
549.6298	-0.0104
549.8248	-0.0053
550.0198	-0.0022
550.2147	-0.0007
550.4096	-0.0055
550.6045	-0.0042
550.7994	0.0015
550.9943	0.0012
551.1892	-0.0076
551.384	-0.0085
551.5788	-0.0092
551.7737	-0.002
551.9685	-0.0055
552.1632	-0.0014
552.358	-0.0115
552.5528	-0.0058
552.7475	-0.0094
552.9422	-0.008
553.1369	-0.0064
553.3316	-0.0071
553.5263	-0.0036
553.7209	-0.0053
553.9156	0.0007
554.1102	-0.0004
554.3048	-0.0072
554.4994	-0.0083
554.694	-0.0003
554.8885	-0.0046
555.0831	-0.0032
555.2776	-0.0036
555.4721	-0.0064
555.6666	-0.0075
555.8611	-0.0059
556.0555	-0.0112
556.25	-0.0061
556.4444	-0.0017
556.6388	-0.012
556.8332	-0.0027
557.0276	-0.0064
557.222	-0.0045
557.4163	0.0007
557.6107	-0.0094
557.805	-0.0076
557.9993	-0.0066
558.1936	-0.0065
558.3879	0.0023
558.5821	-0.003
558.7764	-0.008
558.9706	-0.0027
559.1648	-0.0034
559.359	-0.0116
559.5532	-0.0052
559.7473	-0.0116
559.9415	-0.0078
560.1356	-0.0102
560.3297	-0.0142
560.5238	-0.0101
560.7179	-0.008
560.9119	-0.0002
561.106	-0.0056
561.3	-0.0012
561.494	-0.0087
561.688	-0.0065
561.882	-0.0076
562.076	-0.0049
562.2699	-0.0093
562.4639	-0.0055
562.6578	-0.0102
562.8517	-0.0009
563.0456	-0.0024
563.2395	-0.0043
563.4333	-0.0043
563.6272	-0.0041
563.821	-0.0028
564.0148	0.0004
564.2086	-0.0085
564.4024	-0.0051
564.5961	-0.0033
564.7899	-0.0002
564.9836	0.0012
565.1773	-0.0041
565.371	-0.002
565.5647	-0.0021
565.7584	-0
565.952	0.0021
566.1456	-0.0029
566.3393	-0.0036
566.5329	0.0006
566.7264	0.0014
566.92	-0.0021
567.1136	-0.0077
567.3071	-0.0007
567.5006	0.0022
567.6941	0.0033
567.8876	-0.0034
568.0811	-0.0014
568.2745	-0.0074
568.468	-0.0071
568.6614	-0.0042
568.8548	-0.0073
569.0482	-0.009
569.2416	-0.0023
569.4349	-0.003
569.6283	-0.0056
569.8216	-0.0071
570.0149	-0.0064
570.2082	-0.0027
570.4015	-0.0018
570.5947	-0.004
570.788	-0.0035
570.9812	-0.003
571.1744	-0.0049
571.3676	-0.0021
571.5608	-0.0049
571.754	-0.0066
571.9471	-0.0077
572.1402	-0.0029
572.3333	-0.0016
572.5264	-0.001
572.7195	0.0028
572.9126	-0.0027
573.1057	-0.0075
573.2987	0.0015
573.4917	-0.0078
573.6847	-0.0031
573.8777	-0.008
574.0707	-0.0003
574.2636	-0.0071
574.4566	-0.0013
574.6495	-0.0039
574.8424	-0.0032
575.0353	-0.0063
575.2281	-0.001
575.421	-0.0082
575.6138	-0.0027
575.8067	-0.0037
575.9995	-0.0008
576.1923	-0.0071
576.385	-0.008
576.5778	-0.0029
576.7706	0.0007
576.9633	0.0001
577.156	-0.0022
577.3487	-0.0008
577.5414	-0.0002
577.734	0.0034
577.9267	0.0017
578.1193	-0.0019
578.3119	-0.0004
578.5045	-0.007
578.6971	-0.0013
578.8897	-0.0085
579.0822	-0.0033
579.2747	0.0041
579.4673	-0.0047
579.6598	0.0017
579.8522	-0
580.0447	-0.0008
580.2372	0.0038
580.4296	0.0037
580.622	0.0019
580.8144	-0.0064
581.0068	-0.0011
581.1992	0.0029
581.3915	-0.0011
581.5839	-0.0023
581.7762	-0.0077
581.9685	-0.0019
582.1608	-0.0021
582.353	0.0011
582.5453	-0.0038
582.7375	-0.0017
582.9298	-0.0078
583.122	0.0042
583.3142	-0.0009
583.5063	-0.0025
583.6985	-0.0034
583.8906	-0.0024
584.0827	-0.0106
584.2749	-0.0066
584.4669	-0.0066
584.659	-0.0083
584.8511	-0.0058
585.0431	-0.0072
585.2352	-0.0063
585.4272	-0.0093
585.6192	-0.0053
585.8111	-0.0025
586.0031	-0.0054
586.195	-0.0042
586.387	-0.0018
586.5789	-0.0058
586.7708	-0.0067
586.9627	-0.0033
587.1545	-0.0039
587.3464	-0.0044
587.5382	-0.0038
587.73	-0.004
587.9218	-0.0008
588.1136	-0.001
588.3053	-0.0018
588.4971	-0.002
588.6888	-0.0046
588.8805	-0.0017
589.0722	-0.0018
589.2639	-0.0028
589.4556	0.0028
589.6472	-0.0018
589.8389	-0.0011
590.0305	-0.0045
590.2221	-0.0052
590.4137	-0.0044
590.6052	-0.0045
590.7968	-0.0052
590.9883	-0.0011
591.1798	-0.0055
591.3713	0.0027
591.5628	-0.0049
591.7543	-0.0034
591.9458	-0.0032
592.1372	-0.0046
592.3286	0.0012
592.52	-0.0043
592.7114	0.0021
592.9028	-0.0067
593.0941	-0.0043
593.2855	-0.0003
593.4768	0.002
593.6681	0.0014
593.8594	0.0005
594.0506	0.0003
594.2419	-0.002
594.4331	-0.0011
594.6244	-0.0056
594.8156	-0.0061
595.0067	-0.0021
595.1979	-0.0039
595.3891	-0.0056
595.5802	-0.0064
595.7713	-0.0023
595.9624	-0.0004
596.1535	-0.0006
596.3446	0.0001
596.5357	0.0016
596.7267	-0.0026
596.9177	-0.0001
597.1087	-0.0047
597.2997	0.0059
597.4907	0.0001
597.6817	0.0005
597.8726	-0.0017
598.0635	-0.0047
598.2544	-0.006
598.4453	-0.0067
598.6362	-0.0042
598.827	-0.0067
599.0179	-0.0025
599.2087	-0.0077
599.3995	-0.0074
599.5903	-0.0056
599.7811	-0.0023
599.9718	-0.0031
600.1626	0.0027
600.3533	-0.0058
600.544	-0.0065
600.7347	0.0005
600.9254	0.0006
601.116	-0.005
601.3067	-0.0071
601.4973	-0.0055
601.6879	-0.002
601.8785	-0.0039
602.0691	-0.005
602.2596	-0.0003
602.4502	-0.0054
602.6407	-0
602.8312	-0.0012
603.0217	-0.0036
603.2122	-0.003
603.4027	-0.0002
603.5931	-0.007
603.7835	0.0003
603.9739	-0.0045
604.1643	-0.0047
604.3547	-0.0038
604.5451	-0.0002
604.7354	-0.0045
604.9257	0.0014
605.116	-0.0016
605.3063	0.0036
605.4966	-0.0031
605.6869	-0.004
605.8771	-0.0008
606.0673	-0.0044
606.2575	-0.004
606.4477	-0.0054
606.6379	-0.0057
606.8281	-0.0055
607.0182	-0.0104
607.2083	-0.0075
607.3985	-0.0097
607.5885	-0.0008
607.7786	-0.0043
607.9687	-0.0032
608.1587	-0.0054
608.3488	-0.003
608.5388	-0.0012
608.7288	-0.0027
608.9187	-0.001
609.1087	-0.0051
609.2986	-0.0046
609.4886	-0.0016
609.6785	-0.0024
609.8684	-0.0022
610.0582	-0.0054
610.2481	-0.0073
610.4379	-0.0013
610.6278	-0.0001
610.8176	0.0052
611.0074	-0.0041
611.1971	-0.0008
611.3869	-0.0031
611.5766	-0.0017
611.7664	0.0026
611.9561	-0.0036
612.1458	-0.0012
612.3354	-0.0054
612.5251	-0.0091
612.7147	0.0023
612.9044	-0.0025
613.094	-0.0028
613.2836	-0.0024
613.4731	-0.0088
613.6627	-0.0039
613.8522	-0.0013
614.0417	-0.0044
614.2313	-0.0035
614.4207	-0.0046
614.6102	0.0013
614.7997	-0.002
614.9891	-0.004
615.1785	-0.0053
615.3679	-0.0004
615.5573	0.0007
615.7467	-0.0029
615.9361	-0.0007
616.1254	-0.0018
616.3147	-0.0034
616.504	-0.0061
616.6933	-0.0035
616.8826	-0.0038
617.0718	-0.001
617.2611	-0.0022
617.4503	0.0042
617.6395	-0.0033
617.8287	-0.0025
618.0179	0.0023
618.207	-0.0034
618.3961	-0.003
618.5853	-0.0042
618.7744	-0.0009
618.9634	-0.0002
619.1525	-0.0057
619.3416	-0.0105
619.5306	-0.0038
619.7196	-0.0026
619.9086	0.0004
620.0976	-0.0018
620.2866	-0.0001
620.4755	-0.0034
620.6645	-0.0004
620.8534	0.0022
621.0423	-0.0066
621.2312	-0.006
621.42	-0.0018
621.6089	-0.003
621.7977	0.0006
621.9865	0.0003
622.1753	0.0008
622.3641	0.0022
622.5529	-0.0015
622.7416	-0.0003
622.9303	-0.0027
623.1191	-0.0052
623.3078	0.004
623.4964	-0.0063
623.6851	0.0026
623.8737	0.0009
624.0624	-0.0009
624.251	-0.0032
624.4396	-0.0005
624.6282	-0.0059
624.8167	0.0015
625.0053	-0.0035
625.1938	0.0004
625.3823	-0.0028
625.5708	0.0007
625.7593	-0.0024
625.9477	-0.0093
626.1362	-0.0048
626.3246	-0.0047
626.513	-0.0018
626.7014	0
626.8898	-0.0019
627.0781	-0.0013
627.2665	-0.0047
627.4548	-0.0106
627.6431	-0.0066
627.8314	-0.0093
628.0197	-0.0023
628.2079	-0.0041
628.3962	0.0064
628.5844	0.0028
628.7726	-0.002
628.9608	-0.0006
629.1489	0.0021
629.3371	0.0009
629.5252	0.0013
629.7134	0.0043
629.9015	-0.0034
630.0895	0.0013
630.2776	0.0027
630.4657	-0.0043
630.6537	-0.0046
630.8417	0.0014
631.0297	-0.0021
631.2177	0.0001
631.4057	0.0042
631.5936	-0.0021
631.7815	-0.0061
631.9695	-0.0005
632.1574	-0.0064
632.3452	-0.0038
632.5331	-0.0034
632.7209	-0.0095
632.9088	-0.0099
633.0966	0.0001
633.2844	-0.0024
633.4722	-0.0027
633.6599	-0.0039
633.8477	-0.0015
634.0354	-0.0078
634.2231	-0.0038
634.4108	-0.0059
634.5985	-0.0015
634.7861	-0.0029
634.9738	-0.0082
635.1614	-0.0054
635.349	-0.0067
635.5366	-0.0014
635.7242	0.0013
635.9117	0.0013
636.0993	-0.0072
636.2868	-0.0011
636.4743	0.0003
636.6618	-0.0079
636.8492	-0.0005
637.0367	-0.003
637.2241	-0.0023
637.4115	-0.0074
637.5989	0.0015
637.7863	0.0018
637.9737	-0.0072
638.161	-0.0032
638.3484	-0.0047
638.5357	-0.0013
638.723	-0.0012
638.9103	-0.0025
639.0975	0.0034
639.2848	-0.0037
639.472	0.0021
639.6592	0.0028
639.8464	0.0015
640.0336	-0.0028
640.2208	0.0037
640.4079	-0.0072
640.595	0.0008
640.7821	-0.0007
640.9692	0.0015
641.1563	0.0049
641.3434	-0.0001
641.5304	-0.0008
641.7174	0.0015
641.9044	0.0022
642.0914	-0.0011
642.2784	0.0028
642.4653	0.0056
642.6523	-0.0018
642.8392	0.0033
643.0261	0.0054
643.213	0.003
643.3999	0.0012
643.5867	-0.0045
643.7735	0.0025
643.9604	0.0012
644.1472	-0.0023
644.3339	-0.0007
644.5207	-0.0018
644.7075	-0.0041
644.8942	-0.0009
645.0809	-0.0009
645.2676	-0.0061
645.4543	0.0038
645.6409	-0.0038
645.8276	-0.0024
646.0142	-0.0006
646.2008	-0.0027
646.3874	-0.0037
646.574	-0.0034
646.7605	-0.002
646.9471	-0.0081
647.1336	-0.0083
647.3201	-0.0068
647.5066	-0.0023
647.6931	-0.003
647.8795	-0.0025
648.0659	-0.0053
648.2524	-0.0026
648.4388	0.0003
648.6252	-0.0004
648.8115	-0.0101
648.9979	-0.0019
649.1842	-0.0058
649.3705	-0.0025
649.5568	0.0016
649.7431	-0.0052
649.9294	-0.0034
650.1156	-0.0032
650.3018	-0.004
650.488	-0.0076
650.6742	-0.004
650.8604	-0.0014
651.0466	0.0017
651.2327	0.0046
651.4188	-0.0007
651.6049	0.0026
651.791	-0.002
651.9771	-0.0013
652.1632	0.0032
652.3492	-0.0008
652.5352	-0.0029
652.7212	0.0007
652.9072	0.0053
653.0932	0.002
653.2791	0.0004
653.465	0.0022
653.651	-0.0056
653.8369	-0.0008
654.0227	0.0027
654.2086	0.0012
654.3944	-0.0086
654.5803	-0.0082
654.7661	-0.002
654.9519	-0.0061
655.1377	-0.0023
655.3234	-0
655.5092	-0
655.6949	-0
655.8806	-0
656.0663	-0
656.2519	-0
656.4376	-0.0039
656.6232	-0.002
656.8088	-0.0013
656.9945	-0.0041
657.18	0.0014
657.3656	-0.0013
657.5511	-0.0066
657.7367	-0.0083
657.9222	0.0017
658.1077	-0.0031
658.2932	-0.0062
658.4786	0.0032
658.6641	-0.0022
658.8495	-0.0017
659.0349	-0.0045
659.2203	-0.0047
659.4057	-0.0085
659.591	-0.0011
659.7764	-0.0016
659.9617	-0.0058
660.147	-0.0039
660.3323	-0.0013
660.5176	-0.0104
660.7028	-0.0027
660.888	-0.002
661.0733	0.0004
661.2585	-0.0082
661.4436	-0.0018
661.6288	-0.0023
661.8139	0.0008
661.9991	-0
662.1842	-0.0002
662.3693	-0.0023
662.5544	-0.0021
662.7394	0.0016
662.9245	0.0042
663.1095	0.0023
663.2945	-0.0033
663.4795	-0.0063
663.6644	-0.0062
663.8494	-0.0069
664.0343	-0.003
664.2193	-0.0061
664.4042	-0.0108
664.589	-0.0041
664.7739	-0.008
664.9587	0.0026
665.1436	-0.0037
665.3284	-0.0055
665.5132	-0.0014
665.698	0.0026
665.8827	0.0003
666.0675	-0.0092
666.2522	-0.0092
666.4369	-0.0039
666.6216	-0.0124
666.8063	-0.0055
666.9909	-0.0117
667.1756	-0.0072
667.3602	-0.0098
667.5448	-0.0103
667.7294	-0.0035
667.9139	-0.0085
668.0985	-0.0081
668.283	-0.0145
668.4675	-0.0129
668.652	-0.0127
668.8365	-0.0101
669.0209	-0.0052
669.2054	-0.0054
669.3898	-0.0051
669.5742	-0.0107
669.7586	-0.0048
669.943	-0.0051
670.1273	-0.0069
670.3117	-0.0039
670.496	-0.0085
670.6803	0.0007
670.8646	-0.0022
671.0488	-0.002
671.2331	-0.0041
671.4173	-0.0028
671.6015	-0.0027
671.7857	-0.0098
671.9699	-0.0085
672.1541	-0.0063
672.3382	-0.0073
672.5223	-0.0062
672.7064	-0.0069
672.8905	-0.0139
673.0746	-0.0107
673.2587	-0.0188
673.4427	-0.0153
673.6267	-0.0132
673.8107	-0.0151
673.9947	-0.0125
674.1787	-0.0077
674.3626	-0.0093
674.5465	-0.0039
674.7304	0.0008
674.9143	-0.0057
675.0982	-0.0025
675.2821	-0.0051
675.4659	-0.0059
675.6497	0.0021
675.8335	-0.0002
676.0173	-0.0089
676.2011	-0.0084
676.3849	-0.006
676.5686	-0.0011
676.7523	-0.0028
676.936	-0.005
677.1197	-0.0032
677.3034	-0.0082
677.487	-0.0075
677.6706	-0.0083
677.8542	-0.0041
678.0378	-0.0046
678.2214	-0.0107
678.405	-0.0034
678.5885	-0.0051
678.772	-0.0084
678.9555	-0.0018
679.139	-0.0054
679.3225	-0.0122
679.5059	-0.0038
679.6894	-0.0033
679.8728	-0.0067
680.0562	-0.0011
680.2395	-0.0037
680.4229	0.0008
680.6062	-0.0017
680.7896	0.0008
680.9729	-0
681.1562	-0.0018
681.3394	0.0018
681.5227	-0.0039
681.7059	-0.0063
681.8891	-0.0046
682.0723	-0.0106
682.2555	-0.006
682.4387	0.0021
682.6218	-0.0042
682.805	-0.0035
682.9881	-0.0057
683.1712	0.0048
683.3542	-0.0023
683.5373	-0.0015
683.7203	0.0003
683.9034	0.0004
684.0864	-0.0055
684.2694	0.0007
684.4523	-0.0036
684.6353	0.0012
684.8182	-0.0039
685.0011	-0.005
685.184	-0.0047
685.3669	-0.0054
685.5498	-0.0003
685.7326	-0.004
685.9154	-0.0065
686.0982	-0.0024
686.281	-0.0044
686.4638	-0.0043
686.6465	-0.0101
686.8293	-0.0058
687.012	-0.0039
687.1947	-0.0074
687.3774	-0.0035
687.56	-0.0062
687.7427	-0.0001
687.9253	-0.0009
688.1079	0.0032
688.2905	0.0028
688.4731	-0.003
688.6556	-0.0055
688.8382	-0.0013
689.0207	0.0029
689.2032	-0.0002
689.3857	-0.0024
689.5681	-0.0025
689.7506	-0.0004
689.933	0.0007
690.1154	-0.0046
690.2978	-0.0014
690.4802	-0.0024
690.6626	0.0058
690.8449	0.0007
691.0272	0.0071
691.2095	-0.0007
691.3918	-0.0005
691.5741	-0.0054
691.7563	-0.0018
691.9386	-0.0074
692.1208	-0.0076
692.303	-0.0045
692.4852	-0.0042
692.6673	-0.0033
692.8495	-0.0052
693.0316	-0.0016
693.2137	-0.0047
693.3958	-0.0059
693.5778	-0.0015
693.7599	-0.0085
693.9419	-0.0129
694.1239	-0.0017
694.3059	-0.0121
694.4879	-0.0038
694.6699	-0.0085
694.8518	-0.002
695.0337	-0.0032
695.2157	-0.0054
695.3975	-0.0118
695.5794	-0.0064
695.7613	-0.0039
695.9431	-0.0062
696.1249	-0.0055
696.3067	-0.0068
696.4885	0.0004
696.6703	-0.0009
696.852	-0.0033
697.0337	0.0015
697.2154	0.0007
697.3971	-0.0036
697.5788	-0.0036
697.7605	-0.0045
697.9421	-0.0064
698.1237	-0.0021
698.3053	-0.0057
698.4869	-0
698.6685	-0.0038
698.85	-0.0059
699.0315	-0.0033
699.213	-0.0003
699.3945	-0.0008
699.576	0.0032
699.7575	0.0012
699.9389	0.0019
700.1203	-0.0054
700.3017	-0.0041
700.4831	-0.0061
700.6645	-0.0107
700.8458	-0.0056
701.0271	-0.0044
701.2084	-0.0101
701.3897	-0.0071
701.571	0.0028
701.7523	0.0027
701.9335	0.0058
702.1147	0.0063
702.2959	-0.006
702.4771	0.0013
702.6583	-0.0015
702.8394	0.0009
703.0205	-0.0008
703.2016	-0.0026
703.3827	-0.0006
703.5638	-0.0076
703.7449	-0.0057
703.9259	0.0002
704.1069	-0.0018
704.2879	-0.0036
704.4689	-0.0044
704.6499	-0.0059
704.8308	-0.0062
705.0117	-0.0025
705.1927	-0.0024
705.3735	0.004
705.5544	-0.003
705.7353	0.0053
705.9161	0.0041
706.0969	0.0089
706.2777	-0.005
706.4585	0.0003
706.6393	-0.0005
706.82	-0.0065
707.0007	-0.0027
707.1815	-0.0011
707.3621	-0.0026
707.5428	-0.0011
707.7235	-0.0017
707.9041	0.0044
708.0847	-0.0079
708.2653	0.0001
708.4459	-0.0044
708.6265	-0.0041
708.807	0.002
708.9875	-0.0008
709.168	-0.0018
709.3485	-0.0028
709.529	-0.0044
709.7095	-0.0108
709.8899	-0.0045
710.0703	-0.0012
710.2507	-0.0069
710.4311	-0.0014
710.6115	0.0037
710.7918	-0.0071
710.9721	0.0016
711.1524	0.0004
711.3327	0.0004
711.513	-0.0022
711.6932	-0.0049
711.8735	0.0041
712.0537	0.0008
712.2339	-0.0057
712.4141	-0.0066
712.5942	0.0023
712.7744	0.0031
712.9545	0.0016
713.1346	-0.0034
713.3147	0.0025
713.4947	0.0031
713.6748	-0.0049
713.8548	-0.0067
714.0348	-0.003
714.2148	-0.0024
714.3948	-0.0045
714.5748	-0.008
714.7547	-0.0093
714.9346	-0.0048
715.1145	-0.0047
715.2944	-0.0038
715.4743	-0.0078
715.6541	-0.0019
715.834	-0.0077
716.0138	0.0026
716.1936	0
716.3733	-0.0069
716.5531	-0.0052
716.7328	-0.0021
716.9126	-0.0047
717.0923	-0.0088
717.2719	-0.0089
717.4516	-0.0043
717.6312	-0.0004
717.8109	0.0008
717.9905	-0.0015
718.1701	-0.005
718.3496	-0.0045
718.5292	-0.0042
718.7087	-0.0015
718.8882	-0.0059
719.0677	-0.0007
719.2472	-0.0038
719.4267	-0.0075
719.6061	-0.0117
719.7856	-0.0044
719.965	-0.0096
720.1443	-0.003
720.3237	-0.0042
720.5031	-0.0092
720.6824	-0.0068
720.8617	-0.0057
721.041	0.0006
721.2203	-0.007
721.3995	-0.0065
721.5788	-0.0131
721.758	0.0006
721.9372	0.0017
722.1164	-0.0072
722.2956	-0.0071
722.4747	-0.0041
722.6538	-0.0071
722.8329	-0.0037
723.012	-0.0026
723.1911	-0.0067
723.3702	0.0004
723.5492	-0.0068
723.7282	0.001
723.9072	-0.0013
724.0862	-0.0021
724.2652	-0.0015
724.4441	-0.0062
724.623	0.0029
724.8019	-0.0008
724.9808	0.0033
725.1597	0.0032
725.3385	0.0088
725.5174	0.0003
725.6962	-0.0067
725.875	0.0032
726.0538	0.0066
726.2325	-0.0056
726.4112	0.0004
726.59	-0.0003
726.7687	-0.0002
726.9474	-0.0023
727.126	0.0017
727.3047	-0.0034
727.4833	-0.0033
727.6619	-0.0127
727.8405	0.0005
728.0191	-0.0004
728.1976	-0.0071
728.3762	-0.0101
728.5547	-0.0061
728.7332	-0.0096
728.9116	-0.012
729.0901	-0.0158
729.2686	-0.0117
729.447	-0.0072
729.6254	-0.0065
729.8038	-0.0108
729.9821	0.0004
730.1605	-0.003
730.3388	-0.0001
730.5171	-0.0005
730.6954	-0.0046
730.8737	-0.0067
731.0519	-0.0015
731.2302	0.005
731.4084	0.0045
731.5866	0
731.7648	0.003
731.9429	0.0036
732.1211	0.0039
732.2992	0.0054
732.4773	-0.0022
732.6554	-0.0027
732.8335	-0.0072
733.0115	-0.0091
733.1896	-0.0066
733.3676	-0.0052
733.5456	-0.0029
733.7235	-0.004
733.9015	-0.0012
734.0794	-0.0024
734.2574	-0.0006
734.4353	-0.0005
734.6131	-0.0031
734.791	-0.0082
734.9689	-0.0075
735.1467	0.0025
735.3245	-0.0019
735.5023	-0.0055
735.68	-0.0017
735.8578	-0.0031
736.0355	0.011
736.2132	0.0043
736.3909	-0.0037
736.5686	-0.0036
736.7463	-0.0023
736.9239	-0.006
737.1015	-0.0023
737.2791	-0.0091
737.4567	-0.0093
737.6343	-0.0071
737.8118	-0.0011
737.9894	-0.0014
738.1669	-0.0032
738.3444	-0.0043
738.5218	0.0025
738.6993	0.0012
738.8767	0.0038
739.0541	-0.0073
739.2315	-0.0013
739.4089	-0.0001
739.5863	-0.0047
739.7636	-0.0082
739.9409	-0.003
740.1182	0.0002
740.2955	0.0012
740.4728	-0.0052
740.65	-0.0027
740.8272	-0.0026
741.0044	-0.0028
741.1816	0.0011
741.3588	0.0072
741.5359	-0.0059
741.7131	-0
741.8902	-0.0013
742.0673	-0.0033
742.2444	-0.0011
742.4214	-0.0059
742.5985	-0.0093
742.7755	-0.0043
742.9525	-0.0008
743.1295	-0.0005
743.3064	-0.0049
743.4834	-0.0003
743.6603	-0.0045
743.8372	0.001
744.0141	-0.0028
744.191	-0.0023
744.3678	-0.004
744.5446	0.0023
744.7215	-0.009
744.8982	-0.0037
745.075	-0.0004
745.2518	0.002
745.4285	0.0004
745.6052	0.0023
745.7819	-0.0028
745.9586	-0.001
746.1353	-0.0053
746.3119	-0.0008
746.4885	-0.0044
746.6651	0.0017
746.8417	-0.0052
747.0183	-0.0061
747.1948	-0.0041
747.3714	-0.006
747.5479	-0.0015
747.7244	0.0029
747.9008	-0.0006
748.0773	-0.0001
748.2537	0.0027
748.4301	0.0036
748.6065	-0.0065
748.7829	0.003
748.9593	0.0034
749.1356	-0.0073
749.3119	0.0009
749.4882	0.0079
749.6645	0.0013
749.8408	-0.0051
750.017	0.0013
750.1933	-0.0074
750.3695	-0.0041
750.5457	-0.0071
750.7218	-0.0099
750.898	-0.0076
751.0741	-0.0091
751.2502	-0.0048
751.4263	-0.0034
751.6024	-0.0067
751.7784	0.0046
751.9545	-0.0008
752.1305	0.0016
752.3065	-0.0003
752.4825	-0.0026
752.6584	-0.0057
752.8344	0.0013
753.0103	-0.0055
753.1862	0.001
753.3621	-0.0025
753.5379	-0.0069
753.7138	0.0072
753.8896	-0.0162
754.0654	-0.0103
754.2412	-0.0113
754.417	-0.0066
754.5927	-0.0092
754.7685	-0.0135
754.9442	-0.0097
755.1199	-0.0136
755.2956	-0.0068
755.4712	-0.0003
755.6469	-0.0069
755.8225	-0.0035
755.9981	-0.0078
756.1736	-0.0038
756.3492	-0.0091
756.5248	-0.0008
756.7003	-0.0076
756.8758	-0.0119
757.0513	-0.0077
757.2267	-0.0103
757.4022	-0.0081
757.5776	-0.0125
757.753	-0.008
757.9284	-0.008
758.1038	-0.0076
758.2791	-0.0142
758.4545	-0.008
758.6298	-0.0086
758.8051	-0.01
758.9803	-0.0079
759.1556	-0.0113
759.3308	-0.0028
759.506	-0.0112
759.6812	-0.0156
759.8564	-0.0075
760.0316	-0.0148
760.2067	-0.0071
760.3819	-0.0061
760.557	-0.0073
760.732	-0.011
760.9071	-0.0158
761.0821	-0.0152
761.2572	-0.0128
761.4322	-0.0119
761.6072	-0.0096
761.7821	-0.0102
761.9571	-0.0075
762.132	-0.0108
762.3069	0.0011
762.4818	-0.0068
762.6567	-0.0092
762.8316	-0.0028
763.0064	0.0049
763.1812	0.0014
763.356	-0.0042
763.5308	0.002
763.7055	0.006
763.8803	-0.0022
764.055	-0.0103
764.2297	0.0008
764.4044	-0.0041
764.579	0.0048
764.7537	-0.0042
764.9283	-0.0078
765.1029	0.0023
765.2775	-0.0004
765.4521	0.0053
765.6266	-0.0021
765.8011	0.0036
765.9756	0.0054
766.1501	0.0081
766.3246	0.0009
766.4991	0.0016
766.6735	-0.0106
766.8479	-0.0046
767.0223	0.0036
767.1967	-0.0047
767.371	-0.0002
767.5454	0.0002
767.7197	-0.008
767.894	0.0032
768.0683	0.0033
768.2425	-0.0034
768.4168	-0.008
768.591	0.0066
768.7652	0.0017
768.9394	0.0041
769.1135	0.0069
769.2877	0.002
769.4618	0.0023
769.6359	0.0038
769.81	-0.0016
769.984	-0.0084
770.1581	-0.0011
770.3321	0.0048
770.5061	-0.0005
770.6801	0.0034
770.8541	0.0015
771.028	0.0051
771.202	0.0062
771.3759	-0.0031
771.5498	-0.0037
771.7236	0.0009
771.8975	-0.004
772.0713	-0.0006
772.2451	0.0028
772.4189	0.0008
772.5927	-0.0078
772.7665	-0.001
772.9402	0.0057
773.1139	-0.0014
773.2876	-0.0052
773.4613	-0.0016
773.635	0.0014
773.8086	0.002
773.9822	-0.0028
774.1558	-0.0023
774.3294	0.0079
774.503	0.0007
774.6765	-0.0028
774.8501	0.0031
775.0236	-0.016
775.1971	-0.0016
775.3705	0.0011
775.544	-0.0008
775.7174	-0.0055
775.8908	-0.0029
776.0642	-0.0026
776.2376	-0.0045
776.4109	-0.0028
776.5843	0.0043
776.7576	0.0018
776.9309	0.0027
777.1041	-0.0068
777.2774	0.0055
777.4506	0.0015
777.6238	0.0032
777.797	-0.0019
777.9702	-0.004
778.1434	-0.0084
778.3165	0.0009
778.4896	-0.0091
778.6627	-0.0009
778.8358	-0.0061
779.0089	-0.0031
779.1819	-0.0087
779.3549	-0.0025
779.5279	0.0055
779.7009	-0.0012
779.8739	-0.0005
780.0468	-0.0067
780.2197	-0.0067
780.3926	-0.0055
780.5655	-0.0104
780.7384	-0.006
780.9112	-0.0062
781.0841	-0.0059
781.2569	-0.002
781.4297	-0.0131
781.6024	-0.0035
781.7752	0.003
781.9479	-0.001
782.1206	0.003
782.2933	-0.005
782.466	-0.0035
782.6386	0.0045
782.8113	-0.0094
782.9839	-0.0062
783.1565	-0.009
783.329	-0.0012
783.5016	-0.0052
783.6741	-0.0077
783.8466	-0.0082
784.0191	-0.0147
784.1916	0
784.3641	-0.0016
784.5365	0
784.7089	0.0046
784.8813	0.0133
785.0537	0.0115
785.2261	0.0044
785.3984	0.0002
785.5707	0.0019
785.743	0.0056
785.9153	-0.0031
786.0876	-0.0007
786.2598	0.0052
786.432	0.0036
786.6042	0.0046
786.7764	0.0094
786.9486	0.0028
787.1207	-0.0062
787.2928	0.0025
787.4649	-0.0099
787.637	-0.0031
787.8091	-0.002
787.9811	0.0099
788.1532	0.0008
788.3252	-0.0091
788.4972	-0.0017
788.6691	-0.0027
788.8411	0.0058
789.013	-0.0028
789.1849	0.0054
789.3568	-0.0101
789.5287	-0.0011
789.7005	-0.0052
789.8723	-0.0061
790.0442	-0.0024
790.2159	0.0034
790.3877	-0.003
790.5595	0.0023
790.7312	0.0095
790.9029	-0.0007
791.0746	-0.0119
791.2463	-0.0008
791.4179	-0.0108
791.5896	0.0114
791.7612	0.0024
791.9328	0.0018
792.1044	-0.001
792.2759	0.012
792.4474	-0
792.619	-0.0024
792.7905	-0.0115
792.9619	-0.0084
793.1334	-0.0022
793.3048	-0.0047
793.4762	-0.0065
793.6476	-0.019
793.819	-0.0111
793.9904	-0.0108
794.1617	-0.0176
794.333	-0.008
794.5043	0.0018
794.6756	0.0023
794.8469	0.0066
795.0181	-0.0108
795.1893	-0.0165
795.3605	-0.0081
795.5317	-0.0036
795.7029	-0.0086
795.874	-0.0076
796.0452	-0.0136
796.2163	-0.0072
796.3873	-0.0023
796.5584	-0.0132
796.7294	-0.0097
796.9005	-0.0169
797.0715	-0.0152
797.2425	-0.0161
797.4134	-0.0163
797.5844	-0.0171
797.7553	-0.0097
797.9262	-0.0093
798.0971	-0.014
798.2679	-0.0202
798.4388	-0.0143
798.6096	-0.0097
798.7804	-0.0126
798.9512	-0.0253
799.122	-0.0044
799.2927	-0.0103
799.4635	-0.013
799.6342	-0.0116
799.8049	-0.0143
799.9755	-0.0081
800.1462	-0.0172
800.3168	-0.011
800.4874	-0.0205
800.658	-0.0178
800.8286	-0.0193
800.9991	-0.0118
801.1696	-0.0101
801.3402	-0.017
801.5106	-0.0265
801.6811	-0.0187
801.8516	-0.0117
802.022	-0.031
802.1924	-0.0273
802.3628	-0.0126
802.5332	-0.0127
802.7035	-0.0161
802.8739	-0.0131
803.0442	-0.0124
803.2145	-0.0106
803.3847	-0.0137
803.555	-0.0189
803.7252	-0.0128
803.8954	-0.0183
804.0656	0.0017
804.2358	-0.0103
804.4059	-0.0098
804.5761	-0.0144
804.7462	-0.0172
804.9163	-0.0042
805.0864	-0.0107
805.2564	-0.0115
805.4264	-0.0126
805.5965	-0.014
805.7665	-0.0037
805.9364	-0.0081
806.1064	-0.0166
806.2763	-0.0165
806.4462	-0.0067
806.6161	-0.008
806.786	-0.0129
806.9559	0.0009
807.1257	-0.0119
807.2955	-0.0045
807.4653	-0.0148
807.6351	-0.0063
807.8048	-0.0001
807.9746	-0.004
808.1443	-0.0014
808.314	-0.0119
808.4837	0.0073
808.6533	-0.0029
808.8229	0.0008
808.9926	0.0032
809.1622	-0.0079
809.3317	0.0083
809.5013	0.0062
809.6708	-0.0049
809.8403	0.0021
810.0098	0.003
810.1793	-0.0126
810.3488	0.0126
810.5182	-0.0025
810.6876	0.001
810.857	-0.0162
811.0264	-0.0208
811.1958	-0.0004
811.3651	-0.0095
811.5344	-0.0108
811.7037	-0.0134
811.873	-0.0127
812.0422	-0.0164
812.2115	-0.0027
812.3807	0.0053
812.5499	-0.0022
812.7191	-0.0111
812.8882	-0.0075
813.0574	0.0024
813.2265	-0.0004
813.3956	-0.0051
813.5646	-0.015
813.7337	-0.0012
813.9027	0.0064
814.0718	-0.0009
814.2407	0.0119
814.4097	-0.0025
814.5787	0.0106
814.7476	-0.0049
814.9165	0.0044
815.0854	-0.0042
815.2543	0.0166
815.4232	-0.0044
815.592	0.0049
815.7608	0.0053
815.9296	0.0005
816.0984	0.0063
816.2671	-0.0037
816.4359	0.0029
816.6046	-0.001
816.7733	-0.0101
816.942	-0.0044
817.1106	-0.0046
817.2793	-0.0104
817.4479	-0.006
817.6165	-0.0235
817.785	-0.0117
817.9536	-0.0003
818.1221	0.0031
818.2906	-0.016
818.4591	-0.0118
818.6276	-0.0126
818.7961	-0.005
818.9645	-0.0119
819.1329	-0.0086
819.3013	-0.0175
819.4697	-0.0096
819.638	-0.0048
819.8064	-0.0091
819.9747	-0.0093
820.143	-0.0152
820.3113	-0.0029
820.4795	-0.0022
820.6477	-0.0121
820.816	0.0043
820.9842	-0.0021
821.1523	-0.016
821.3205	-0.0186
821.4886	-0.0052
821.6567	-0.0006
821.8248	-0.0172
821.9929	-0.0035
822.1609	-0.0024
822.329	-0.0073
822.497	-0.0145
822.665	-0.0061
822.833	-0.0376
823.0009	-0.0034
823.1688	-0.0218
823.3367	-0.0103
823.5046	-0.0119
823.6725	-0.0177
823.8404	0.0084
824.0082	-0.0094
824.176	0.0013
824.3438	-0.0113
824.5116	0.0074
824.6793	-0.0108
824.847	-0.0108
825.0147	-0.0215
825.1824	-0.0185
825.3501	0.0052
825.5177	-0.0063
825.6854	0.0018
825.853	-0.0023
826.0206	0.008
826.1881	-0.0119
826.3557	-0.0026
826.5232	0.0038
826.6907	0.0127
826.8582	-0.0123
827.0257	-0.0065
827.1931	0.0001
827.3605	0.0002
827.528	0.0033
827.6953	-0.0054
827.8627	-0.0065
828.03	0.0009
828.1974	-0.0084
828.3647	0.0009
828.532	-0.0141
828.6992	-0.0021
828.8665	-0.0112
829.0337	-0.0107
829.2009	-0.0164
829.3681	-0.029
829.5352	-0.0172
829.7024	-0.0056
829.8695	-0.0173
830.0366	-0.0215
830.2037	-0.01
830.3707	-0.017
830.5378	-0.0087
830.7048	-0.0382
830.8718	-0.0053
831.0388	-0.0079
831.2057	-0.0079
831.3727	-0.0064
831.5396	0.0071
831.7065	0.011
831.8734	0.0064
832.0402	-0.0221
832.2071	0.0154
832.3739	-0.0022
832.5407	-0.0102
832.7075	-0.0085
832.8742	0.0091
833.041	0.0242
833.2077	-0.0199
833.3744	-0.0098
833.541	-0.0014
833.7077	0.0076
833.8743	-0.001
834.0409	0.0096
834.2075	0.0051
834.3741	0.0008
834.5407	0.0309
834.7072	-0.0047
834.8737	-0.0155
835.0402	-0.0241
835.2067	-0.0188
835.3731	-0.0235
835.5395	-0.0167
835.706	-0.0296
835.8723	-0.0121
836.0387	-0.0098
836.2051	-0.0055
836.3714	0.0186
836.5377	0.0004
836.704	0.0043
836.8703	-0.0146
837.0365	-0.0206
837.2027	-0.0091
837.3689	0.0009
837.5351	-0.0139
837.7013	0.0028
837.8674	0.0147
838.0335	0.0007
838.1997	-0.0001
838.3657	-0.0169
838.5318	-0.0092
838.6978	-0.0078
838.8639	-0.0041
839.0299	-0.0172
839.1958	-0.0067
839.3618	0.0123
839.5277	-0.0156
839.6937	0.0072
839.8596	-0.0127
840.0254	0.0065
840.1913	-0.0088
840.3571	0.0004
840.523	0.0106
840.6888	0.0103
840.8545	-0.0151
841.0203	0.0199
841.186	-0.0073
841.3517	-0.023
841.5174	-0.0011
841.6831	0.0002
841.8488	0.0137
842.0144	0.0273
842.18	-0.0017
842.3456	-0.0015
842.5112	0.0188
842.6767	-0.0015
842.8422	0.0034
843.0077	-0.0091
843.1732	-0.0076
843.3387	-0.0288
843.5042	0.0008
843.6696	0.0057
843.835	-0.0329
844.0004	0.0114
844.1657	-0.0026
844.3311	0.0002
844.4964	-0.0163
844.6617	0.0071
844.827	0.0028
844.9923	0.0005
845.1575	0.0013
845.3227	-0.0042
845.4879	-0.0105
845.6531	0.0018
845.8183	-0.0258
845.9834	-0.0072
846.1485	0.0061
846.3136	-0.0369
846.4787	-0.0019
846.6438	-0.0125
846.8088	0.0034
846.9738	-0.001
847.1388	0.0398
847.3038	0.004
847.4687	-0.0032
847.6337	0.0319
847.7986	0.0147
847.9635	0.0144
848.1284	-0.0064
848.2932	-0.0012
848.458	0.0181
848.6228	0.0063
848.7876	-0.0338
848.9524	0.0514
849.1172	-0.0253
849.2819	0.0106
849.4466	-0.0269
849.6113	-0.0173
849.7759	-0.014
849.9406	-0.0013
850.1052	0.0121
850.2698	0.0108
850.4344	-0.031
850.599	-0.0284
850.7635	0.0106
850.928	-0.0342
851.0925	0.0409
851.257	0.0112
851.4215	0.007
851.5859	0.0398
851.7503	-0.0129
851.9147	-0.0108
852.0791	0.0164
852.2434	-0.0023
852.4078	0.0179
852.5721	-0.0333
852.7364	-0.0809
852.9007	0.0344
853.0649	-0.0268
853.2291	0.0072
853.3934	-0.0078
853.5575	-0.0195
853.7217	-0.0162
853.8859	-0.0202
854.05	-0.0012
854.2141	-0.0335
854.3782	0.0462
854.5423	0.0089
854.7063	-0.0147
854.8703	0.0423
855.0343	0.0102
855.1983	0.0401
855.3623	0.0004
855.5262	0.014
855.6901	0.034
855.854	0.0094
856.0179	0.0461
856.1818	0.0145
856.3456	-0.0307
856.5094	0.011
856.6732	-0.0493
856.837	0.0071
857.0008	0.0433
857.1645	-0.0312
857.3282	-0.0224
857.4919	-0.072
857.6556	0.0548
857.8192	0.0251
857.9828	0.0475
858.1465	0.0491
858.31	-0.0328
858.4736	-0.0773
858.6372	0.024
858.8007	-0.0132
858.9642	-0.0375
859.1277	0.0809
859.2911	0.066
859.4546	0.0375
859.618	-0.0164
859.7814	0.0006
859.9448	-0.0504
860.1081	-0.0171
860.2715	0.0509
860.4348	-0.0145
860.5981	0.0231
860.7614	-0.0248
860.9246	0.0732
861.0879	0.0634
861.2511	0.0258
861.4143	-0.0896
861.5774	0.0258
861.7406	0.016
861.9037	-0.1404
862.0668	-0.0234
862.2299	-0.1003
862.393	0.0116
862.556	0.1474
862.7191	-0.0081
862.8821	-0.0032
863.0451	0.0363
863.208	-0.0084
863.371	-0.0406
863.5339	-0.0212
863.6968	-0.0441
863.8597	0.0081
864.0225	-0.1721
864.1854	0.0277
864.3482	-0.1803
864.511	-0.0817
864.6737	-0.0715
864.8365	-0.012
864.9992	-0.159
865.1619	0.0344
865.3246	-0.0847
865.4873	0.0863
865.65	0.0712
865.8126	-0.1113
865.9752	-0.1416
866.1378	-0.1117
866.3004	0.0196
866.4629	-0.1941
866.6254	-0.0247
866.7879	0.0136
866.9504	-0.1448
867.1129	0.1884
867.2753	-0.0044
867.4377	-0.1406
867.6001	-0.1949
867.7625	0.0119
867.9249	0.0484
868.0872	-0.1421
868.2495	-0.1173
868.4118	-0.1583
868.5741	-0.1413
868.7363	0.1443
868.8986	0.1174
869.0608	0.1069
869.223	-0.1041
869.3851	-0.0396
869.5473	0.1065
869.7094	-0.0461
869.8715	0.0962
870.0336	-0.0939
870.1957	-0.1053
870.3577	-0.0263
870.5197	-0.2844
870.6817	-0.2121
870.8437	-0.1951
871.0057	-0.1493
871.1676	-0.113
871.3295	-0.137
871.4914	0.0449
871.6533	0.2761
871.8151	-0.024
871.977	0.2055
872.1388	-0.1166
872.3006	0.0675
872.4623	-0.0135
872.6241	-0.003
872.7858	-0.0535
872.9475	0.0188
873.1092	-0.0884
873.2709	-0.053
873.4325	-0.0875
873.5941	0.1822
873.7557	0.2706
873.9173	0.1774
874.0789	-0.0712
874.2404	-0.1368
874.4019	-0.0156
874.5634	-0.0033
874.7249	-0.2106
874.8863	-0.0212
875.0478	0.0099
875.2092	-0.259
875.3706	0.0579
875.5319	0.0041
875.6933	-0.2876
875.8546	0.0419
876.0159	0.0654
876.1772	-0.2409
876.3385	-0.5412
876.4997	0.8171
876.6609	-0.1712
876.8221	0.0039
876.9833	-0.4608
877.1445	-0.1192
877.3056	0.0721
877.4667	-0.7891
877.6278	0.2251
877.7889	0.0911
877.9499	-0.4439
878.111	0.3862
878.272	0.4446
878.433	0.3577
878.5939	-0.029
878.7549	-0.1414
878.9158	0.0229
879.0767	0.2258
879.2376	0.2848
879.3984	0.0166
879.5593	-0.5005
879.7201	-0
879.8809	-0.0531
880.0417	-0.1713
880.2024	-0.131
880.3632	-0.1929
880.5239	-0
880.6846	0.0091
880.8452	-0
881.0059	-0.7188
881.1665	-0
881.3271	-0.3844
881.4877	-0.2147
881.6483	-0
881.8088	0.1847
881.9693	0.0974
882.1298	0.0974
882.2903	0.0974
