Data from MonoPyChalIsomerACN10uM450nmA_Absorbance_13-11-17-092.txt Node
Date: Tue Jul 09 13:11:17 BST 2024
User: LASERRRRR
Spectrometer: FLMT03099
Trigger mode: 0
Integration Time (sec): 2.000000E-1
Scans to average: 1
Electric dark correction enabled: true
Nonlinearity correction enabled: false
Boxcar width: 0
XAxis mode: Wavelengths
Number of Pixels in Spectrum: 3648
>>>>>Begin Spectral Data<<<<<
179.3399	0.0779
179.5586	0.0779
179.7771	0.0779
179.9957	-0.1917
180.2143	-0
180.4329	0.3066
180.6514	-0.2438
180.8699	-0
181.0885	-0
181.307	0.2243
181.5255	0.4047
181.744	-0.1525
181.9625	0.1859
182.181	-0
182.3994	0.1701
182.6179	-0.197
182.8363	-0
183.0547	0.1688
183.2732	0.1483
183.4916	0.0802
183.71	0.0373
183.9284	-0.0065
184.1467	0.0543
184.3651	0.1025
184.5835	0.1727
184.8018	-0.0552
185.0201	0.117
185.2385	-0.0333
185.4568	-0.0834
185.6751	0.0433
185.8934	-0.0474
186.1117	0.0469
186.3299	-0.1643
186.5482	-0.0591
186.7664	0.048
186.9847	0.0497
187.2029	0.111
187.4211	0.0426
187.6393	-0.0247
187.8575	0.046
188.0757	-0.0115
188.2939	0.0057
188.512	0.0864
188.7302	0.185
188.9483	0.1434
189.1665	0.1404
189.3846	0.1561
189.6027	0.0344
189.8208	0.1041
190.0389	0.1703
190.257	0.1915
190.475	0.287
190.6931	0.1016
190.9111	0.3631
191.1292	0.2738
191.3472	0.4023
191.5652	0.3277
191.7832	0.352
192.0012	0.5446
192.2192	0.3999
192.4371	0.4583
192.6551	0.4313
192.873	0.46
193.091	0.5018
193.3089	0.6105
193.5268	0.4537
193.7447	0.5639
193.9626	0.4557
194.1805	0.5462
194.3984	0.5116
194.6162	0.6159
194.8341	0.4642
195.0519	0.6098
195.2697	0.5713
195.4875	0.5651
195.7054	0.7092
195.9231	0.5662
196.1409	0.5791
196.3587	0.5873
196.5765	0.6275
196.7942	0.7864
197.012	0.6382
197.2297	0.6922
197.4474	0.7231
197.6651	0.6851
197.8828	0.7102
198.1005	0.8101
198.3182	0.7461
198.5358	0.7127
198.7535	0.8114
198.9711	0.8219
199.1888	0.7778
199.4064	0.8485
199.624	0.7613
199.8416	0.822
200.0592	0.7417
200.2767	0.7865
200.4943	0.7684
200.7119	0.9641
200.9294	0.8783
201.1469	0.8116
201.3645	0.8051
201.582	0.9346
201.7995	0.7477
202.017	0.855
202.2344	0.9225
202.4519	0.8565
202.6694	0.8156
202.8868	0.8559
203.1042	1.0108
203.3217	1.021
203.5391	1.0268
203.7565	0.9819
203.9739	0.8881
204.1913	0.8327
204.4086	0.9446
204.626	0.9418
204.8433	0.8851
205.0607	0.9064
205.278	0.9551
205.4953	1.228
205.7126	0.8712
205.9299	1.0493
206.1472	0.9742
206.3644	0.9942
206.5817	1.0065
206.7989	0.9783
207.0162	1.0595
207.2334	0.9092
207.4506	1.0341
207.6678	1.0424
207.885	1.1174
208.1022	0.956
208.3194	1.0128
208.5365	0.9834
208.7537	1.1073
208.9708	1.0959
209.1879	1.1249
209.405	1.0581
209.6222	0.9952
209.8392	0.9953
210.0563	0.9775
210.2734	1.0743
210.4905	1.0909
210.7075	0.9868
210.9245	0.9252
211.1416	1.0924
211.3586	1.1059
211.5756	1.0563
211.7926	1.0781
212.0096	0.9965
212.2265	1.0837
212.4435	1.0722
212.6604	1.12
212.8774	1.0281
213.0943	0.9801
213.3112	0.9646
213.5281	1.011
213.745	0.9973
213.9619	1.0041
214.1788	0.9494
214.3956	0.9525
214.6125	0.9246
214.8293	0.8961
215.0461	0.9196
215.2629	0.9196
215.4798	0.8659
215.6965	0.8658
215.9133	0.8382
216.1301	0.7881
216.3469	0.8023
216.5636	0.7868
216.7803	0.7462
216.9971	0.76
217.2138	0.7205
217.4305	0.6971
217.6472	0.6764
217.8639	0.6505
218.0805	0.6035
218.2972	0.5521
218.5138	0.5471
218.7305	0.511
218.9471	0.483
219.1637	0.4664
219.3803	0.4251
219.5969	0.393
219.8135	0.3843
220.0301	0.3555
220.2466	0.3714
220.4632	0.3544
220.6797	0.3188
220.8962	0.3154
221.1127	0.3032
221.3292	0.3022
221.5457	0.2874
221.7622	0.2895
221.9787	0.2859
222.1951	0.2916
222.4116	0.2772
222.628	0.2725
222.8444	0.2688
223.0608	0.2777
223.2772	0.2656
223.4936	0.2782
223.71	0.2744
223.9264	0.2788
224.1427	0.2705
224.3591	0.2772
224.5754	0.2709
224.7917	0.2817
225.008	0.2823
225.2243	0.2804
225.4406	0.2841
225.6569	0.2795
225.8732	0.2902
226.0894	0.274
226.3057	0.2892
226.5219	0.2915
226.7381	0.2895
226.9543	0.2888
227.1705	0.2825
227.3867	0.3001
227.6029	0.293
227.8191	0.3056
228.0352	0.2981
228.2513	0.3014
228.4675	0.3053
228.6836	0.3189
228.8997	0.312
229.1158	0.3148
229.3319	0.3202
229.548	0.3228
229.764	0.3294
229.9801	0.3315
230.1961	0.3395
230.4121	0.3268
230.6282	0.3474
230.8442	0.3534
231.0602	0.3398
231.2761	0.3435
231.4921	0.3563
231.7081	0.372
231.924	0.3621
232.14	0.3619
232.3559	0.3589
232.5718	0.3625
232.7877	0.3537
233.0036	0.3644
233.2195	0.3671
233.4353	0.3786
233.6512	0.3732
233.867	0.3797
234.0829	0.3827
234.2987	0.3826
234.5145	0.3703
234.7303	0.3986
234.9461	0.3961
235.1619	0.39
235.3776	0.3798
235.5934	0.4012
235.8091	0.3901
236.0249	0.3848
236.2406	0.3835
236.4563	0.4029
236.672	0.4006
236.8877	0.4046
237.1034	0.411
237.319	0.4129
237.5347	0.3923
237.7503	0.4049
237.966	0.4106
238.1816	0.413
238.3972	0.4042
238.6128	0.4137
238.8284	0.4235
239.0439	0.4217
239.2595	0.4256
239.475	0.416
239.6906	0.4296
239.9061	0.4097
240.1216	0.4214
240.3371	0.4292
240.5526	0.4285
240.7681	0.4084
240.9836	0.4182
241.199	0.4122
241.4145	0.3922
241.6299	0.4067
241.8453	0.3965
242.0607	0.3832
242.2761	0.3872
242.4915	0.3866
242.7069	0.3819
242.9223	0.3625
243.1376	0.3633
243.353	0.3496
243.5683	0.3477
243.7836	0.3415
243.9989	0.3366
244.2142	0.3276
244.4295	0.3268
244.6448	0.3159
244.86	0.3324
245.0753	0.2994
245.2905	0.2907
245.5057	0.3053
245.721	0.2938
245.9362	0.2781
246.1514	0.2829
246.3665	0.2755
246.5817	0.2723
246.7969	0.2697
247.012	0.268
247.2271	0.2477
247.4423	0.2565
247.6574	0.2576
247.8725	0.2512
248.0876	0.2503
248.3026	0.2421
248.5177	0.2426
248.7328	0.2331
248.9478	0.2362
249.1628	0.2408
249.3779	0.234
249.5929	0.2229
249.8079	0.2325
250.0228	0.2227
250.2378	0.2315
250.4528	0.2202
250.6677	0.2189
250.8827	0.2041
251.0976	0.2044
251.3125	0.2179
251.5274	0.1995
251.7423	0.2044
251.9572	0.2088
252.172	0.2106
252.3869	0.206
252.6017	0.2099
252.8166	0.2069
253.0314	0.1993
253.2462	0.2044
253.461	0.197
253.6758	0.1962
253.8906	0.2039
254.1053	0.2029
254.3201	0.1983
254.5348	0.2008
254.7496	0.2054
254.9643	0.2012
255.179	0.1987
255.3937	0.1929
255.6083	0.2024
255.823	0.1971
256.0377	0.1927
256.2523	0.19
256.467	0.1958
256.6816	0.1887
256.8962	0.1997
257.1108	0.2016
257.3254	0.2035
257.54	0.1925
257.7545	0.1985
257.9691	0.1925
258.1836	0.1882
258.3981	0.197
258.6127	0.1914
258.8272	0.1873
259.0417	0.1965
259.2561	0.1915
259.4706	0.193
259.6851	0.1968
259.8995	0.1831
260.114	0.1825
260.3284	0.2018
260.5428	0.2043
260.7572	0.1976
260.9716	0.1954
261.186	0.1966
261.4003	0.2016
261.6147	0.2054
261.829	0.1978
262.0433	0.2012
262.2577	0.1965
262.472	0.2035
262.6863	0.1896
262.9005	0.1885
263.1148	0.1866
263.3291	0.1841
263.5433	0.1864
263.7576	0.1842
263.9718	0.1911
264.186	0.1851
264.4002	0.1806
264.6144	0.1864
264.8286	0.1848
265.0427	0.1841
265.2569	0.1814
265.471	0.1824
265.6851	0.1779
265.8993	0.1758
266.1134	0.1739
266.3275	0.1785
266.5415	0.1733
266.7556	0.1796
266.9697	0.1762
267.1837	0.1733
267.3978	0.1835
267.6118	0.186
267.8258	0.1907
268.0398	0.1903
268.2538	0.1912
268.4677	0.189
268.6817	0.1949
268.8957	0.1909
269.1096	0.1852
269.3235	0.1767
269.5374	0.1726
269.7514	0.1573
269.9652	0.1642
270.1791	0.1566
270.393	0.1561
270.6068	0.1471
270.8207	0.1475
271.0345	0.1534
271.2483	0.1498
271.4622	0.1479
271.676	0.1477
271.8897	0.1404
272.1035	0.1354
272.3173	0.1433
272.531	0.1467
272.7448	0.141
272.9585	0.136
273.1722	0.1344
273.3859	0.1359
273.5996	0.1356
273.8133	0.131
274.0269	0.1403
274.2406	0.1371
274.4542	0.1371
274.6679	0.1317
274.8815	0.1349
275.0951	0.1408
275.3087	0.1302
275.5223	0.1336
275.7358	0.1352
275.9494	0.1377
276.1629	0.1355
276.3765	0.1373
276.59	0.143
276.8035	0.145
277.017	0.1412
277.2305	0.1396
277.444	0.1345
277.6574	0.1387
277.8709	0.1446
278.0843	0.1424
278.2978	0.1398
278.5112	0.1436
278.7246	0.1416
278.938	0.1441
279.1513	0.1482
279.3647	0.1442
279.5781	0.1357
279.7914	0.1425
280.0047	0.1394
280.2181	0.151
280.4314	0.1438
280.6447	0.1371
280.8579	0.1529
281.0712	0.1499
281.2845	0.1462
281.4977	0.1446
281.711	0.1416
281.9242	0.147
282.1374	0.1451
282.3506	0.1433
282.5638	0.1569
282.7769	0.145
282.9901	0.1432
283.2033	0.1501
283.4164	0.1569
283.6295	0.1587
283.8426	0.1536
284.0557	0.1462
284.2688	0.1496
284.4819	0.1507
284.695	0.1531
284.908	0.1551
285.1211	0.1609
285.3341	0.1488
285.5471	0.1587
285.7601	0.1547
285.9731	0.1602
286.1861	0.1615
286.3991	0.1554
286.612	0.1615
286.825	0.1596
287.0379	0.1575
287.2508	0.1544
287.4637	0.1595
287.6766	0.1501
287.8895	0.16
288.1024	0.1601
288.3152	0.1551
288.5281	0.1693
288.7409	0.1534
288.9538	0.1622
289.1666	0.1671
289.3794	0.1605
289.5922	0.1664
289.8049	0.1591
290.0177	0.1683
290.2304	0.16
290.4432	0.1632
290.6559	0.1582
290.8686	0.1623
291.0813	0.1622
291.294	0.1666
291.5067	0.1567
291.7194	0.1643
291.932	0.1633
292.1447	0.1602
292.3573	0.163
292.5699	0.1699
292.7825	0.1634
292.9951	0.162
293.2077	0.158
293.4203	0.1616
293.6328	0.1694
293.8454	0.1625
294.0579	0.1661
294.2704	0.1722
294.4829	0.1687
294.6954	0.1675
294.9079	0.1689
295.1204	0.1681
295.3328	0.1678
295.5453	0.1618
295.7577	0.1538
295.9701	0.1665
296.1825	0.1675
296.3949	0.1632
296.6073	0.161
296.8197	0.1628
297.0321	0.1625
297.2444	0.1646
297.4567	0.1642
297.6691	0.168
297.8814	0.1547
298.0937	0.1634
298.306	0.1703
298.5182	0.1553
298.7305	0.1619
298.9428	0.1566
299.155	0.1591
299.3672	0.1628
299.5794	0.1659
299.7916	0.1669
300.0038	0.1605
300.216	0.1647
300.4282	0.1592
300.6403	0.1615
300.8525	0.1586
301.0646	0.161
301.2767	0.1624
301.4888	0.1589
301.7009	0.1623
301.913	0.1685
302.125	0.1587
302.3371	0.1689
302.5491	0.1598
302.7612	0.1675
302.9732	0.1681
303.1852	0.1637
303.3972	0.1672
303.6092	0.1608
303.8211	0.1635
304.0331	0.1581
304.245	0.16
304.457	0.1672
304.6689	0.1563
304.8808	0.1505
305.0927	0.1566
305.3046	0.1489
305.5164	0.1527
305.7283	0.1589
305.9401	0.1561
306.152	0.1485
306.3638	0.1578
306.5756	0.1489
306.7874	0.143
306.9992	0.1408
307.2109	0.1346
307.4227	0.1366
307.6344	0.1344
307.8462	0.1338
308.0579	0.1313
308.2696	0.1337
308.4813	0.1315
308.693	0.1295
308.9046	0.1232
309.1163	0.1249
309.328	0.1156
309.5396	0.117
309.7512	0.1279
309.9628	0.1133
310.1744	0.1159
310.386	0.1193
310.5976	0.1157
310.8091	0.1145
311.0207	0.1109
311.2322	0.1148
311.4437	0.111
311.6552	0.116
311.8667	0.1068
312.0782	0.1053
312.2897	0.1088
312.5012	0.1096
312.7126	0.1021
312.924	0.0954
313.1355	0.0981
313.3469	0.1067
313.5583	0.1071
313.7696	0.1001
313.981	0.0977
314.1924	0.0937
314.4037	0.1035
314.6151	0.0927
314.8264	0.0966
315.0377	0.095
315.249	0.0948
315.4603	0.0921
315.6716	0.0965
315.8828	0.0979
316.0941	0.0915
316.3053	0.0915
316.5165	0.0879
316.7277	0.0879
316.9389	0.0951
317.1501	0.0952
317.3613	0.0873
317.5724	0.0916
317.7836	0.092
317.9947	0.0971
318.2058	0.0872
318.417	0.0895
318.6281	0.0904
318.8391	0.0875
319.0502	0.0941
319.2613	0.0964
319.4723	0.0936
319.6834	0.0941
319.8944	0.0922
320.1054	0.0898
320.3164	0.0995
320.5274	0.0981
320.7383	0.0934
320.9493	0.092
321.1602	0.0931
321.3712	0.101
321.5821	0.0922
321.793	0.0867
322.0039	0.0847
322.2148	0.095
322.4257	0.0878
322.6365	0.0894
322.8474	0.091
323.0582	0.1017
323.269	0.092
323.4798	0.0947
323.6906	0.0914
323.9014	0.0941
324.1122	0.0948
324.3229	0.0938
324.5337	0.083
324.7444	0.0853
324.9551	0.0979
325.1658	0.0939
325.3765	0.0941
325.5872	0.0942
325.7979	0.0983
326.0085	0.0935
326.2192	0.0951
326.4298	0.1023
326.6404	0.0975
326.851	0.0924
327.0616	0.0998
327.2722	0.0906
327.4828	0.0974
327.6933	0.1019
327.9039	0.0952
328.1144	0.1023
328.3249	0.1033
328.5354	0.0977
328.7459	0.0907
328.9564	0.1019
329.1669	0.0938
329.3773	0.0997
329.5878	0.1062
329.7982	0.097
330.0086	0.1022
330.219	0.102
330.4294	0.0938
330.6398	0.1047
330.8502	0.0948
331.0605	0.1002
331.2708	0.1018
331.4812	0.0983
331.6915	0.1004
331.9018	0.0938
332.1121	0.1047
332.3224	0.0972
332.5326	0.0926
332.7429	0.1004
332.9531	0.0961
333.1633	0.1044
333.3735	0.0992
333.5837	0.1028
333.7939	0.1056
334.0041	0.1024
334.2143	0.1052
334.4244	0.1006
334.6346	0.0951
334.8447	0.1005
335.0548	0.0996
335.2649	0.0924
335.475	0.0967
335.685	0.1021
335.8951	0.1022
336.1051	0.0909
336.3152	0.1056
336.5252	0.1029
336.7352	0.0981
336.9452	0.102
337.1552	0.1052
337.3652	0.1093
337.5751	0.1062
337.7851	0.0966
337.995	0.1124
338.2049	0.1036
338.4148	0.1026
338.6247	0.102
338.8346	0.099
339.0445	0.1066
339.2543	0.1103
339.4642	0.1062
339.674	0.1112
339.8838	0.1087
340.0936	0.099
340.3034	0.1181
340.5132	0.1109
340.7229	0.1157
340.9327	0.1076
341.1424	0.1094
341.3522	0.1108
341.5619	0.1206
341.7716	0.1169
341.9813	0.1188
342.1909	0.1211
342.4006	0.1105
342.6102	0.1137
342.8199	0.1078
343.0295	0.1169
343.2391	0.1218
343.4487	0.1131
343.6583	0.1193
343.8679	0.1129
344.0774	0.1228
344.287	0.1136
344.4965	0.1185
344.706	0.1273
344.9155	0.1214
345.125	0.1176
345.3345	0.1199
345.544	0.11
345.7534	0.1199
345.9629	0.1216
346.1723	0.1294
346.3817	0.1242
346.5911	0.1261
346.8005	0.1187
347.0099	0.1189
347.2193	0.1252
347.4286	0.1213
347.638	0.1367
347.8473	0.1293
348.0566	0.1385
348.2659	0.1161
348.4752	0.1304
348.6845	0.1266
348.8937	0.1333
349.103	0.1308
349.3122	0.1348
349.5214	0.1368
349.7306	0.1329
349.9398	0.1317
350.149	0.142
350.3582	0.1326
350.5674	0.134
350.7765	0.1278
350.9856	0.1328
351.1948	0.1393
351.4039	0.1287
351.613	0.1227
351.822	0.1341
352.0311	0.1401
352.2402	0.1434
352.4492	0.1405
352.6582	0.1363
352.8672	0.139
353.0762	0.1572
353.2852	0.1594
353.4942	0.1556
353.7032	0.1389
353.9121	0.145
354.1211	0.1459
354.33	0.1463
354.5389	0.1423
354.7478	0.1412
354.9567	0.1349
355.1655	0.1471
355.3744	0.1555
355.5833	0.15
355.7921	0.1565
356.0009	0.1538
356.2097	0.1539
356.4185	0.1549
356.6273	0.1614
356.8361	0.1427
357.0448	0.1538
357.2536	0.1544
357.4623	0.1528
357.671	0.1599
357.8797	0.1632
358.0884	0.1593
358.2971	0.159
358.5057	0.1601
358.7144	0.1634
358.923	0.1709
359.1316	0.1698
359.3402	0.1749
359.5488	0.1629
359.7574	0.1644
359.966	0.1735
360.1746	0.1743
360.3831	0.1797
360.5916	0.1816
360.8002	0.1727
361.0087	0.1759
361.2172	0.1756
361.4256	0.1731
361.6341	0.1771
361.8426	0.1858
362.051	0.1712
362.2594	0.182
362.4678	0.177
362.6762	0.1809
362.8846	0.1887
363.093	0.1849
363.3014	0.1889
363.5097	0.1858
363.718	0.1903
363.9264	0.1838
364.1347	0.1929
364.343	0.1881
364.5513	0.1952
364.7595	0.1933
364.9678	0.1927
365.176	0.1974
365.3842	0.1891
365.5925	0.1907
365.8007	0.1901
366.0089	0.2079
366.217	0.1883
366.4252	0.2112
366.6333	0.1949
366.8415	0.2083
367.0496	0.2102
367.2577	0.2023
367.4658	0.2152
367.6739	0.208
367.882	0.2069
368.09	0.2004
368.2981	0.217
368.5061	0.2124
368.7141	0.2132
368.9221	0.1988
369.1301	0.2264
369.3381	0.2138
369.5461	0.2119
369.754	0.2223
369.962	0.2073
370.1699	0.2113
370.3778	0.2075
370.5857	0.21
370.7936	0.2153
371.0015	0.2242
371.2093	0.2095
371.4172	0.2234
371.625	0.2239
371.8328	0.2272
372.0406	0.2255
372.2484	0.2326
372.4562	0.2332
372.664	0.2256
372.8717	0.2201
373.0795	0.2222
373.2872	0.2337
373.4949	0.2225
373.7026	0.2216
373.9103	0.2311
374.118	0.2428
374.3256	0.224
374.5333	0.2272
374.7409	0.2377
374.9485	0.2365
375.1561	0.2304
375.3637	0.2353
375.5713	0.2389
375.7789	0.2324
375.9864	0.2327
376.194	0.2328
376.4015	0.2399
376.609	0.239
376.8165	0.2354
377.024	0.2312
377.2315	0.2444
377.4389	0.24
377.6464	0.2384
377.8538	0.242
378.0612	0.2451
378.2686	0.2383
378.476	0.2488
378.6834	0.2528
378.8908	0.2474
379.0981	0.2592
379.3055	0.2449
379.5128	0.2444
379.7201	0.2463
379.9274	0.244
380.1347	0.2486
380.342	0.2529
380.5492	0.2592
380.7565	0.246
380.9637	0.2563
381.1709	0.2561
381.3781	0.2542
381.5853	0.2683
381.7925	0.2545
381.9997	0.2589
382.2068	0.2559
382.4139	0.2592
382.6211	0.2614
382.8282	0.2575
383.0353	0.2501
383.2424	0.2602
383.4494	0.2651
383.6565	0.2618
383.8635	0.2725
384.0706	0.2659
384.2776	0.2594
384.4846	0.2663
384.6916	0.2655
384.8986	0.2574
385.1055	0.2674
385.3125	0.2712
385.5194	0.2699
385.7263	0.266
385.9333	0.2605
386.1402	0.2723
386.347	0.2672
386.5539	0.2527
386.7608	0.2668
386.9676	0.2632
387.1744	0.2504
387.3813	0.2578
387.5881	0.2601
387.7948	0.2728
388.0016	0.2657
388.2084	0.2707
388.4151	0.2566
388.6219	0.262
388.8286	0.2673
389.0353	0.251
389.242	0.2532
389.4487	0.2548
389.6553	0.2619
389.862	0.2392
390.0686	0.24
390.2753	0.2513
390.4819	0.2585
390.6885	0.256
390.8951	0.2503
391.1016	0.2552
391.3082	0.2581
391.5147	0.245
391.7213	0.2461
391.9278	0.2438
392.1343	0.2439
392.3408	0.2406
392.5473	0.2387
392.7537	0.2496
392.9602	0.2323
393.1666	0.2375
393.373	0.2302
393.5794	0.2403
393.7858	0.2323
393.9922	0.2263
394.1986	0.2397
394.4049	0.2338
394.6113	0.2408
394.8176	0.2242
395.0239	0.2266
395.2302	0.215
395.4365	0.2367
395.6428	0.2279
395.8491	0.2278
396.0553	0.2279
396.2615	0.2378
396.4678	0.2416
396.674	0.217
396.8802	0.2143
397.0863	0.2314
397.2925	0.2236
397.4987	0.2177
397.7048	0.227
397.9109	0.2242
398.117	0.2375
398.3231	0.24
398.5292	0.2181
398.7353	0.2177
398.9413	0.2205
399.1474	0.2224
399.3534	0.2196
399.5594	0.2168
399.7654	0.2216
399.9714	0.2166
400.1774	0.2225
400.3833	0.2237
400.5893	0.2144
400.7952	0.222
401.0011	0.2196
401.207	0.2197
401.4129	0.2055
401.6188	0.2073
401.8247	0.2117
402.0305	0.2128
402.2364	0.2233
402.4422	0.2234
402.648	0.238
402.8538	0.2162
403.0596	0.2094
403.2654	0.2127
403.4711	0.2116
403.6768	0.2204
403.8826	0.221
404.0883	0.2189
404.294	0.2124
404.4997	0.2292
404.7054	0.2224
404.911	0.2232
405.1167	0.2327
405.3223	0.213
405.5279	0.2175
405.7335	0.2114
405.9391	0.2216
406.1447	0.2182
406.3502	0.2136
406.5558	0.2138
406.7613	0.2255
406.9668	0.2261
407.1724	0.222
407.3778	0.2271
407.5833	0.2301
407.7888	0.2336
407.9942	0.2231
408.1997	0.2312
408.4051	0.2173
408.6105	0.2101
408.8159	0.2331
409.0213	0.2148
409.2267	0.2127
409.432	0.2199
409.6374	0.218
409.8427	0.2394
410.048	0.2131
410.2533	0.2136
410.4586	0.2313
410.6639	0.2094
410.8691	0.2166
411.0744	0.2159
411.2796	0.2177
411.4848	0.2083
411.69	0.2236
411.8952	0.2216
412.1004	0.2122
412.3056	0.2283
412.5107	0.2231
412.7158	0.2168
412.921	0.2112
413.1261	0.207
413.3312	0.2211
413.5362	0.2157
413.7413	0.2151
413.9464	0.2134
414.1514	0.2121
414.3564	0.2151
414.5614	0.2275
414.7664	0.213
414.9714	0.2021
415.1764	0.2123
415.3813	0.2193
415.5863	0.2113
415.7912	0.2182
415.9961	0.2183
416.201	0.2167
416.4059	0.219
416.6108	0.214
416.8156	0.2109
417.0205	0.2166
417.2253	0.2188
417.4301	0.2146
417.6349	0.2119
417.8397	0.2076
418.0445	0.207
418.2492	0.1937
418.454	0.2101
418.6587	0.2019
418.8634	0.2134
419.0681	0.2087
419.2728	0.2147
419.4775	0.207
419.6822	0.2013
419.8868	0.2044
420.0915	0.204
420.2961	0.2079
420.5007	0.2086
420.7053	0.201
420.9099	0.1949
421.1144	0.1952
421.319	0.1927
421.5235	0.2123
421.728	0.1972
421.9325	0.1918
422.137	0.1864
422.3415	0.2078
422.546	0.1923
422.7504	0.1984
422.9549	0.1987
423.1593	0.2021
423.3637	0.1945
423.5681	0.1913
423.7725	0.1812
423.9769	0.1891
424.1812	0.187
424.3856	0.1888
424.5899	0.1933
424.7942	0.1803
424.9985	0.1806
425.2028	0.1787
425.4071	0.1732
425.6113	0.1793
425.8156	0.191
426.0198	0.1774
426.224	0.1781
426.4282	0.1782
426.6324	0.1814
426.8366	0.1691
427.0407	0.1741
427.2449	0.1773
427.449	0.166
427.6531	0.1655
427.8572	0.1555
428.0613	0.1655
428.2654	0.1638
428.4694	0.1627
428.6735	0.1781
428.8775	0.1606
429.0815	0.1719
429.2855	0.167
429.4895	0.1519
429.6935	0.1504
429.8975	0.1547
430.1014	0.1563
430.3053	0.1569
430.5093	0.1537
430.7132	0.1573
430.9171	0.1495
431.1209	0.1499
431.3248	0.1472
431.5286	0.1482
431.7325	0.139
431.9363	0.1383
432.1401	0.1439
432.3439	0.1352
432.5477	0.1375
432.7514	0.1348
432.9552	0.1251
433.1589	0.1328
433.3627	0.1386
433.5664	0.1348
433.7701	0.1342
433.9737	0.1139
434.1774	0.1162
434.3811	0.1176
434.5847	0.1159
434.7883	0.1243
434.9919	0.1193
435.1955	0.112
435.3991	0.1165
435.6027	0.105
435.8062	0.1156
436.0098	0.1155
436.2133	0.1095
436.4168	0.1059
436.6203	0.1105
436.8238	0.0966
437.0272	0.1087
437.2307	0.1027
437.4341	0.0953
437.6375	0.0966
437.841	0.0952
438.0443	0.0968
438.2477	0.092
438.4511	0.0936
438.6545	0.0898
438.8578	0.0898
439.0611	0.0866
439.2644	0.0945
439.4677	0.0919
439.671	0.0806
439.8743	0.0919
440.0775	0.0692
440.2808	0.0764
440.484	0.0859
440.6872	0.0726
440.8904	0.0732
441.0936	0.0708
441.2967	0.0628
441.4999	0.075
441.703	0.0659
441.9062	0.0691
442.1093	0.0698
442.3124	0.0552
442.5155	0.0662
442.7185	0.0595
442.9216	0.0566
443.1246	0.0595
443.3276	0.0565
443.5307	0.0625
443.7337	0.061
443.9366	0.053
444.1396	0.0497
444.3426	0.0506
444.5455	0.0506
444.7484	0.044
444.9513	0.0452
445.1542	0.0507
445.3571	0.0412
445.56	0.047
445.7628	0.0485
445.9657	0.0556
446.1685	0.0455
446.3713	0.0392
446.5741	0.0487
446.7769	0.0373
446.9797	0.038
447.1824	0.0412
447.3852	0.0388
447.5879	0.0324
447.7906	0.0345
447.9933	0.0374
448.196	0.0334
448.3986	0.0249
448.6013	0.0267
448.8039	0.0332
449.0066	0.0397
449.2092	0.0259
449.4118	0.0323
449.6143	0.0308
449.8169	0.0165
450.0195	0.0158
450.222	0.0137
450.4245	0.0084
450.627	0.0326
450.8295	0.0252
451.032	0.0251
451.2345	0.0161
451.4369	0.0206
451.6394	0.0202
451.8418	0.0139
452.0442	0.0186
452.2466	0.0246
452.449	0.0232
452.6513	0.0268
452.8537	0.0227
453.056	0.0127
453.2583	0.0091
453.4607	0.0214
453.663	0.0282
453.8652	0.0163
454.0675	0.0109
454.2697	0.0171
454.472	0.0198
454.6742	0.0158
454.8764	0.0146
455.0786	0.0253
455.2808	0.0161
455.4829	0.0134
455.6851	0.0126
455.8872	0.0048
456.0893	0.011
456.2915	0.0019
456.4935	0.008
456.6956	0.0147
456.8977	0.0125
457.0997	0.0013
457.3018	0.0146
457.5038	-0.0033
457.7058	0.0021
457.9078	0.0036
458.1098	0.0053
458.3117	0.0023
458.5137	0.0078
458.7156	0.0079
458.9175	0.0074
459.1194	0.0069
459.3213	0.0101
459.5232	0.0042
459.725	-0.0069
459.9269	0.0103
460.1287	0.0029
460.3305	-0.0032
460.5323	0.0058
460.7341	0.0061
460.9359	0.01
461.1376	0.0052
461.3394	-0.0003
461.5411	-0.0079
461.7428	-0.0057
461.9445	0.002
462.1462	0.0051
462.3479	-0
462.5495	0.007
462.7512	-0.0096
462.9528	-0.0004
463.1544	0.0026
463.356	-0.0008
463.5576	0.0001
463.7592	-0.0028
463.9607	-0.0013
464.1623	0.0059
464.3638	0.0117
464.5653	0.0115
464.7668	0.0027
464.9683	0.0129
465.1697	0.0003
465.3712	-0.0009
465.5726	-0.0043
465.7741	-0.01
465.9755	-0.0057
466.1769	-0.0119
466.3782	-0.0016
466.5796	-0.0028
466.7809	0.0003
466.9823	-0.0082
467.1836	-0.0062
467.3849	0.0035
467.5862	-0.006
467.7875	-0.0073
467.9887	0.0013
468.19	-0.0036
468.3912	0.0026
468.5924	-0.0012
468.7936	-0.014
468.9948	0.0006
469.196	-0.0111
469.3972	-0.0035
469.5983	0.0114
469.7994	-0.0074
470.0006	-0.0019
470.2017	0.0008
470.4027	0.0066
470.6038	-0.0084
470.8049	-0.0052
471.0059	0.0029
471.2069	0.0104
471.408	0.0004
471.6089	-0.0072
471.8099	-0.0115
472.0109	-0.003
472.2119	-0.012
472.4128	-0.0028
472.6137	-0.009
472.8146	-0.0157
473.0155	-0.0097
473.2164	-0.0137
473.4173	-0.0024
473.6181	0.0011
473.819	-0.004
474.0198	0.0011
474.2206	-0.0038
474.4214	0.0017
474.6222	-0.0031
474.8229	-0.0094
475.0237	0.0046
475.2244	-0.0041
475.4251	-0.0041
475.6258	0.0019
475.8265	0.0043
476.0272	-0.0017
476.2278	-0.0063
476.4285	-0.0025
476.6291	-0.0002
476.8297	-0.0129
477.0303	-0.003
477.2309	0.0008
477.4315	-0.0033
477.632	-0.0067
477.8326	-0.0026
478.0331	-0.0017
478.2336	-0.0006
478.4341	-0.0099
478.6346	-0.0072
478.8351	-0.0102
479.0355	-0.0088
479.236	-0.0038
479.4364	-0.0128
479.6368	0.0025
479.8372	-0.0087
480.0376	-0.0016
480.2379	-0.0085
480.4383	-0.0044
480.6386	-0.0104
480.8389	-0.0079
481.0392	-0.0167
481.2395	-0.0088
481.4398	-0.0007
481.6401	-0.0141
481.8403	0.0019
482.0405	-0.008
482.2408	0.009
482.441	-0.0031
482.6411	0.0079
482.8413	-0.0106
483.0415	-0.0008
483.2416	-0.0072
483.4417	-0.0055
483.6419	0.0007
483.8419	-0.009
484.042	0.0005
484.2421	-0.0083
484.4422	-0.0059
484.6422	-0.0108
484.8422	-0.0108
485.0422	-0.0048
485.2422	-0.0058
485.4422	-0.004
485.6422	-0.0046
485.8421	-0.007
486.042	-0.0071
486.242	-0.0047
486.4419	-0.0115
486.6417	-0.0079
486.8416	-0.0017
487.0415	-0.0061
487.2413	0.0001
487.4411	-0.0041
487.641	0.0014
487.8408	-0.0093
488.0405	-0.0013
488.2403	-0.0099
488.4401	-0.0063
488.6398	-0.0053
488.8395	-0.0024
489.0392	-0.008
489.2389	-0.0104
489.4386	-0.0048
489.6383	-0.0085
489.8379	-0.0072
490.0376	-0.003
490.2372	-0.0059
490.4368	-0.0083
490.6364	-0.0022
490.836	-0.0131
491.0355	-0.008
491.2351	-0.009
491.4346	-0.0055
491.6341	-0.007
491.8336	-0.0096
492.0331	-0.0073
492.2326	-0.0089
492.432	-0.0096
492.6315	-0.009
492.8309	-0.0077
493.0303	-0.0048
493.2297	-0.0043
493.4291	-0.007
493.6284	-0.001
493.8278	0.0032
494.0271	-0.0037
494.2264	-0.009
494.4257	0.003
494.625	-0.0017
494.8243	-0.0071
495.0236	-0.0132
495.2228	-0.0084
495.422	-0.0014
495.6213	-0.0136
495.8205	-0.0022
496.0196	-0.0065
496.2188	-0.003
496.418	-0.0054
496.6171	0.0002
496.8162	-0.0048
497.0153	-0.0024
497.2144	-0.0072
497.4135	-0.0001
497.6126	-0.0059
497.8116	-0.0078
498.0107	-0.0031
498.2097	-0.0057
498.4087	-0.0026
498.6077	-0.0052
498.8067	-0.0089
499.0056	0.0026
499.2046	-0.0058
499.4035	-0.0082
499.6024	-0.0009
499.8013	-0.0042
500.0002	-0.0048
500.199	-0.0049
500.3979	-0.002
500.5967	-0.0096
500.7956	-0.0144
500.9944	-0.0048
501.1932	-0.0059
501.3919	-0.0163
501.5907	-0.0058
501.7895	-0.0027
501.9882	-0.0136
502.1869	-0.0029
502.3856	-0.0124
502.5843	-0.0137
502.783	-0.0121
502.9816	-0.0048
503.1803	-0.0133
503.3789	0.0008
503.5775	-0.0081
503.7761	-0.0055
503.9747	-0.003
504.1732	-0.0021
504.3718	-0.007
504.5703	-0.0041
504.7689	-0.0016
504.9674	-0.0014
505.1658	-0.015
505.3643	-0.0059
505.5628	0.0057
505.7612	-0.0052
505.9597	-0.0046
506.1581	-0.0043
506.3565	-0.004
506.5549	-0.004
506.7532	-0.0067
506.9516	0.0002
507.1499	-0.004
507.3482	0.0033
507.5465	-0.0058
507.7448	-0.0014
507.9431	-0.0091
508.1414	-0.0095
508.3396	0.0012
508.5379	-0.0047
508.7361	0
508.9343	-0.01
509.1325	-0.009
509.3306	-0.0018
509.5288	0.0013
509.7269	-0.0113
509.9251	-0.0101
510.1232	-0.0056
510.3213	-0.0075
510.5193	0
510.7174	-0.0015
510.9154	-0.0089
511.1135	-0.0063
511.3115	-0.0096
511.5095	-0.0108
511.7075	-0.0084
511.9055	-0.0078
512.1034	-0.0057
512.3014	-0.0093
512.4993	-0.0096
512.6972	-0.0079
512.8951	-0.0098
513.093	-0.0133
513.2908	0.0023
513.4887	-0.0061
513.6865	-0.0116
513.8844	-0.0008
514.0822	-0.0079
514.2799	-0.0052
514.4777	-0.002
514.6755	-0.0026
514.8732	-0.007
515.0709	-0.0071
515.2687	-0.0059
515.4664	-0.0089
515.664	-0.0072
515.8617	-0.0086
516.0594	-0.0047
516.257	0.0007
516.4546	-0.0105
516.6522	-0.0015
516.8498	-0.013
517.0474	0.0013
517.2449	-0.0121
517.4425	-0.0024
517.64	-0.0037
517.8375	-0.015
518.035	-0.0052
518.2325	-0.0125
518.43	-0.0034
518.6274	-0.0116
518.8249	-0.0066
519.0223	-0.0014
519.2197	-0.0063
519.4171	-0.0038
519.6145	-0.006
519.8118	-0.0101
520.0092	0.0007
520.2065	-0.0069
520.4038	-0.0052
520.6011	-0.006
520.7984	-0.0113
520.9956	-0.0075
521.1929	-0.0047
521.3901	-0.0102
521.5874	-0.0068
521.7846	-0.0012
521.9818	-0.0006
522.1789	-0.0024
522.3761	-0.0083
522.5732	-0.0037
522.7704	-0.0125
522.9675	-0.0057
523.1646	-0.0033
523.3617	-0.006
523.5587	-0.0037
523.7558	-0.0064
523.9528	0.0018
524.1498	-0.0079
524.3468	-0.0016
524.5438	-0.0076
524.7408	-0.011
524.9378	-0.0081
525.1347	-0.0067
525.3316	0.0025
525.5285	-0.005
525.7254	-0.0108
525.9223	-0.0014
526.1192	-0.0058
526.316	-0.001
526.5129	0.0008
526.7097	-0.0069
526.9065	-0.0035
527.1033	0.0025
527.3	-0.0091
527.4968	-0.0139
527.6935	-0.0038
527.8903	-0.004
528.087	-0.0134
528.2837	-0.003
528.4804	-0.0063
528.677	-0.0013
528.8737	-0.01
529.0703	0.0007
529.2669	-0.0003
529.4635	-0.003
529.6601	-0.0058
529.8567	-0.0026
530.0532	-0.0041
530.2498	-0.0028
530.4463	-0.005
530.6428	-0.0017
530.8393	-0.0023
531.0358	-0.0071
531.2322	-0.0054
531.4287	-0.0103
531.6251	-0.0107
531.8215	-0.0011
532.0179	-0.0057
532.2143	-0.0069
532.4107	0.0029
532.607	-0.0081
532.8034	-0.0044
532.9997	-0.0014
533.196	-0.0113
533.3923	0.0066
533.5886	-0.0023
533.7848	-0.0025
533.9811	-0.0073
534.1773	-0.0068
534.3735	0.0003
534.5697	-0.0038
534.7659	-0.0071
534.9621	-0.002
535.1582	-0.0055
535.3544	-0.0049
535.5505	-0.0048
535.7466	-0.0036
535.9427	-0.0042
536.1387	0.0001
536.3348	0.0033
536.5308	-0.0023
536.7269	0.0006
536.9229	-0.0007
537.1189	-0.009
537.3148	-0.0044
537.5108	0.0006
537.7068	-0.0058
537.9027	-0.0048
538.0986	-0.0029
538.2945	-0.0035
538.4904	-0.0069
538.6863	-0.0048
538.8821	-0.0048
539.078	-0.0124
539.2738	-0.0072
539.4696	-0.0055
539.6654	-0.005
539.8611	-0.0046
540.0569	-0.0116
540.2526	-0.0073
540.4484	0.0055
540.6441	-0.0041
540.8398	-0.0061
541.0355	0.0006
541.2311	-0.002
541.4268	0.0008
541.6224	0.0034
541.818	-0.004
542.0136	-0.0031
542.2092	-0.0008
542.4048	-0.0073
542.6003	-0.0049
542.7959	-0.0066
542.9914	-0.0087
543.1869	-0.0061
543.3824	-0.0092
543.5779	-0.0115
543.7734	-0.0053
543.9688	-0.0107
544.1642	-0.0061
544.3596	-0.01
544.555	-0.0059
544.7504	-0.0034
544.9458	-0.0063
545.1411	0.0059
545.3365	-0.0054
545.5318	0.0008
545.7271	0.0062
545.9224	0.0017
546.1177	-0.0131
546.3129	-0
546.5081	-0.0089
546.7034	-0.0028
546.8986	-0.0067
547.0938	-0.0039
547.289	-0.0019
547.4841	-0.0068
547.6793	-0.0076
547.8744	-0.0004
548.0695	-0.0086
548.2646	-0.0112
548.4597	-0
548.6548	-0.0029
548.8498	-0.0023
549.0448	-0.0056
549.2399	-0.0045
549.4349	-0.0009
549.6298	-0.0047
549.8248	-0.0019
550.0198	0.0013
550.2147	-0.0017
550.4096	-0.0028
550.6045	-0.0042
550.7994	0.0015
550.9943	0.0007
551.1892	-0.0059
551.384	-0.0105
551.5788	-0.0072
551.7737	-0.0053
551.9685	-0.0024
552.1632	-0.0091
552.358	-0.007
552.5528	-0.0088
552.7475	-0.0079
552.9422	-0.0072
553.1369	-0.0072
553.3316	0.0005
553.5263	-0.0032
553.7209	-0.0083
553.9156	-0.0039
554.1102	-0.013
554.3048	-0.0055
554.4994	-0.0037
554.694	-0.0015
554.8885	-0.0064
555.0831	-0.0062
555.2776	0.0009
555.4721	-0.0045
555.6666	-0.0071
555.8611	-0.0047
556.0555	-0.0081
556.25	-0.0026
556.4444	-0.0044
556.6388	-0.0041
556.8332	-0.0025
557.0276	-0.0091
557.222	-0.0074
557.4163	0.0038
557.6107	-0.004
557.805	-0.0089
557.9993	0.0013
558.1936	-0.0075
558.3879	-0.0012
558.5821	-0.0072
558.7764	-0.0077
558.9706	-0.0065
559.1648	-0.0026
559.359	-0.0114
559.5532	-0.0027
559.7473	-0.0054
559.9415	-0.0115
560.1356	-0.0107
560.3297	-0.0093
560.5238	-0.0062
560.7179	-0.006
560.9119	0.0031
561.106	-0.0021
561.3	0.0037
561.494	-0.0067
561.688	-0.0085
561.882	-0.0042
562.076	-0.0053
562.2699	-0.0047
562.4639	-0.0032
562.6578	-0.0052
562.8517	-0.0065
563.0456	-0.0015
563.2395	-0.0003
563.4333	-0.0042
563.6272	-0.0063
563.821	-0.0034
564.0148	0.0045
564.2086	-0.0056
564.4024	-0.01
564.5961	-0.0014
564.7899	0.0007
564.9836	0.002
565.1773	-0.0036
565.371	-0.0023
565.5647	-0.0066
565.7584	0.0021
565.952	0.0035
566.1456	-0.0057
566.3393	-0.0091
566.5329	-0.0012
566.7264	0.0028
566.92	-0.0007
567.1136	-0.0065
567.3071	-0.0025
567.5006	0.0007
567.6941	-0.0061
567.8876	-0.0077
568.0811	-0.0049
568.2745	-0.0088
568.468	-0.0044
568.6614	-0.0046
568.8548	-0.0059
569.0482	0.0005
569.2416	-0.0036
569.4349	-0.0035
569.6283	-0.0066
569.8216	-0.0041
570.0149	-0.0062
570.2082	-0.0035
570.4015	-0.0039
570.5947	-0.0044
570.788	-0.0062
570.9812	-0.0039
571.1744	-0.0085
571.3676	-0.0036
571.5608	-0.0005
571.754	-0.0022
571.9471	-0.0008
572.1402	-0.0057
572.3333	-0.0028
572.5264	-0.0033
572.7195	-0.0015
572.9126	0.0025
573.1057	-0.0023
573.2987	0.0016
573.4917	-0.0035
573.6847	-0.0022
573.8777	-0.0068
574.0707	0.0004
574.2636	-0.0045
574.4566	-0.0048
574.6495	-0.0052
574.8424	-0.0054
575.0353	-0.0064
575.2281	-0.0024
575.421	-0.0107
575.6138	-0.0006
575.8067	-0.0022
575.9995	-0.0007
576.1923	-0.0025
576.385	-0.0028
576.5778	0.0006
576.7706	0.0024
576.9633	-0.0054
577.156	0.0021
577.3487	0.0011
577.5414	-0.0016
577.734	0.0013
577.9267	0.0012
578.1193	-0.0048
578.3119	-0.0067
578.5045	-0.0057
578.6971	0.0024
578.8897	-0.0106
579.0822	-0.0038
579.2747	0.0065
579.4673	-0.0001
579.6598	0.0011
579.8522	-0.0004
580.0447	-0.0064
580.2372	0.0019
580.4296	0.0044
580.622	0.001
580.8144	-0.0053
581.0068	-0.0028
581.1992	0.0048
581.3915	-0.0019
581.5839	-0.0063
581.7762	-0.0079
581.9685	-0.0028
582.1608	-0.0056
582.353	0.0005
582.5453	-0.0051
582.7375	-0
582.9298	-0.0021
583.122	0.0017
583.3142	-0.0031
583.5063	-0.0006
583.6985	-0.0058
583.8906	-0.0061
584.0827	-0.0016
584.2749	-0.0081
584.4669	-0.004
584.659	-0.0075
584.8511	-0.004
585.0431	-0.0006
585.2352	-0.0094
585.4272	-0.0083
585.6192	-0.0075
585.8111	-0.0032
586.0031	-0.0023
586.195	-0.0056
586.387	-0.0026
586.5789	-0.0024
586.7708	-0.0057
586.9627	-0.0057
587.1545	-0.0056
587.3464	-0.0041
587.5382	-0.0046
587.73	-0.0043
587.9218	-0.0042
588.1136	-0.0028
588.3053	-0.0038
588.4971	-0.0052
588.6888	-0.0053
588.8805	-0.0044
589.0722	-0.0029
589.2639	-0.0033
589.4556	0.0021
589.6472	-0.0028
589.8389	-0.0044
590.0305	-0.0096
590.2221	-0.0005
590.4137	-0.0023
590.6052	-0.003
590.7968	-0.0044
590.9883	-0.0005
591.1798	-0.0085
591.3713	-0.0013
591.5628	-0.0032
591.7543	0.0022
591.9458	-0.0008
592.1372	-0.0047
592.3286	-0.0045
592.52	-0.0061
592.7114	0.0022
592.9028	-0.0012
593.0941	0.0004
593.2855	-0.0025
593.4768	-0.0001
593.6681	0.0037
593.8594	0.0019
594.0506	0.0004
594.2419	0.0037
594.4331	-0.003
594.6244	-0.0022
594.8156	-0.0048
595.0067	-0.0029
595.1979	-0.0056
595.3891	-0.0051
595.5802	-0.0026
595.7713	-0.0052
595.9624	0.0012
596.1535	0.0025
596.3446	0.0041
596.5357	-0.002
596.7267	0.0008
596.9177	0.0015
597.1087	-0.0011
597.2997	0.0012
597.4907	-0.0012
597.6817	-0.0011
597.8726	-0.0072
598.0635	-0.0024
598.2544	-0.0066
598.4453	-0.0048
598.6362	-0.0035
598.827	-0.0054
599.0179	-0.0031
599.2087	-0.0077
599.3995	-0.0073
599.5903	-0.0003
599.7811	-0.0049
599.9718	0.0005
600.1626	0.002
600.3533	-0.0041
600.544	-0.0027
600.7347	0.0023
600.9254	0.0009
601.116	-0.0035
601.3067	-0.0039
601.4973	-0.0089
601.6879	-0.0017
601.8785	-0.0054
602.0691	-0.0047
602.2596	-0.0029
602.4502	-0.0075
602.6407	0.0004
602.8312	-0.0021
603.0217	-0.0054
603.2122	-0.0041
603.4027	-0.002
603.5931	-0.0032
603.7835	-0.0045
603.9739	0.0001
604.1643	0.0003
604.3547	0.0007
604.5451	-0.0015
604.7354	-0.0019
604.9257	-0.0042
605.116	-0.0054
605.3063	-0.001
605.4966	-0.0043
605.6869	-0.0044
605.8771	-0.0034
606.0673	-0.0029
606.2575	-0.0071
606.4477	-0.0051
606.6379	-0.0101
606.8281	-0.0094
607.0182	-0.0085
607.2083	-0.0036
607.3985	-0.011
607.5885	-0.0031
607.7786	-0.0026
607.9687	-0.0003
608.1587	-0.0034
608.3488	-0.0016
608.5388	0.0005
608.7288	-0.0031
608.9187	-0.0044
609.1087	-0.0038
609.2986	-0.0044
609.4886	-0.0041
609.6785	0.0014
609.8684	0.0009
610.0582	-0.0029
610.2481	-0.0065
610.4379	0.0027
610.6278	0.0016
610.8176	-0.0027
611.0074	-0.002
611.1971	-0.0053
611.3869	-0.0033
611.5766	0.0001
611.7664	-0.0015
611.9561	-0.0017
612.1458	0.0031
612.3354	-0.0046
612.5251	-0.0096
612.7147	-0.0038
612.9044	-0.0018
613.094	0.0061
613.2836	-0.0042
613.4731	-0.0052
613.6627	-0.0057
613.8522	-0.0038
614.0417	-0.0038
614.2313	-0.0072
614.4207	-0.0041
614.6102	-0.0003
614.7997	-0.003
614.9891	-0.0034
615.1785	-0.0038
615.3679	-0.0005
615.5573	-0.0043
615.7467	-0.001
615.9361	-0.0033
616.1254	-0.0034
616.3147	-0.0029
616.504	-0.0071
616.6933	-0.0034
616.8826	-0.0049
617.0718	-0.0053
617.2611	0.005
617.4503	-0.0009
617.6395	-0.0001
617.8287	-0.0011
618.0179	0.0007
618.207	-0.0052
618.3961	0.0005
618.5853	-0.0014
618.7744	-0.0039
618.9634	0.0013
619.1525	-0.005
619.3416	-0.0122
619.5306	-0.0009
619.7196	0.0005
619.9086	0.0003
620.0976	0.0009
620.2866	0.0023
620.4755	-0.0044
620.6645	-0.004
620.8534	-0.0001
621.0423	-0.0021
621.2312	-0.0066
621.42	-0.0011
621.6089	0.0014
621.7977	-0.0089
621.9865	0.0002
622.1753	0.0004
622.3641	-0.0007
622.5529	0.0003
622.7416	-0.0063
622.9303	0.0006
623.1191	-0.0018
623.3078	0.005
623.4964	-0.0043
623.6851	0.0024
623.8737	-0.0011
624.0624	-0.0013
624.251	0.0027
624.4396	-0.0033
624.6282	0.0002
624.8167	0.003
625.0053	0.0018
625.1938	0.0037
625.3823	0.0039
625.5708	-0.0004
625.7593	-0.0024
625.9477	-0.0062
626.1362	-0.0027
626.3246	-0.0008
626.513	-0.007
626.7014	-0.0052
626.8898	-0.0078
627.0781	-0.0043
627.2665	-0.0025
627.4548	-0.0112
627.6431	-0.0016
627.8314	-0.0054
628.0197	0.002
628.2079	-0.0014
628.3962	0.0009
628.5844	-0.0015
628.7726	0.0017
628.9608	-0.001
629.1489	0.0052
629.3371	0.0058
629.5252	0.0009
629.7134	0.0011
629.9015	-0.0067
630.0895	-0.0045
630.2776	-0.0011
630.4657	-0.0037
630.6537	-0.002
630.8417	-0.0041
631.0297	-0.003
631.2177	-0.0002
631.4057	-0.0014
631.5936	-0.0003
631.7815	-0.0021
631.9695	-0.0042
632.1574	-0.0042
632.3452	-0.0077
632.5331	-0.0048
632.7209	-0.0058
632.9088	-0.0043
633.0966	-0.0069
633.2844	-0.0023
633.4722	-0.0041
633.6599	-0.0022
633.8477	-0.0026
634.0354	-0.0044
634.2231	-0.0086
634.4108	-0.0012
634.5985	-0.002
634.7861	-0.0059
634.9738	-0.0084
635.1614	-0.0003
635.349	-0.0025
635.5366	-0.0039
635.7242	-0.0009
635.9117	0.002
636.0993	-0.0015
636.2868	-0.0039
636.4743	-0.0004
636.6618	-0.0061
636.8492	-0.0019
637.0367	-0.0036
637.2241	-0.007
637.4115	-0.0056
637.5989	-0.0008
637.7863	-0.0009
637.9737	-0.0043
638.161	-0.0045
638.3484	-0.0022
638.5357	-0.0034
638.723	-0.0019
638.9103	-0
639.0975	0.0031
639.2848	-0.0015
639.472	0.0016
639.6592	0.0037
639.8464	-0.0022
640.0336	-0.0049
640.2208	0.0018
640.4079	-0.0044
640.595	0.0011
640.7821	-0.0011
640.9692	0.0056
641.1563	0.0047
641.3434	-0.0008
641.5304	0.0039
641.7174	0.0016
641.9044	0.004
642.0914	-0.0006
642.2784	0.0017
642.4653	0.0039
642.6523	-0.0009
642.8392	0.0087
643.0261	0.0058
643.213	0.0022
643.3999	-0.0016
643.5867	-0.003
643.7735	-0.001
643.9604	0.0012
644.1472	-0.0043
644.3339	-0.0023
644.5207	-0.0009
644.7075	-0.0065
644.8942	-0.0016
645.0809	0.0004
645.2676	-0.002
645.4543	0.0016
645.6409	0.0023
645.8276	-0.0005
646.0142	-0.0025
646.2008	-0.0093
646.3874	-0.0026
646.574	-0.0025
646.7605	0
646.9471	-0.0084
647.1336	-0.0071
647.3201	-0.001
647.5066	-0.0015
647.6931	0.0017
647.8795	-0.0072
648.0659	-0.0041
648.2524	-0.0019
648.4388	-0.003
648.6252	-0.0039
648.8115	-0.0113
648.9979	-0.0051
649.1842	-0.0093
649.3705	-0.0055
649.5568	-0.0038
649.7431	-0.0044
649.9294	-0.0068
650.1156	0.0002
650.3018	-0.0088
650.488	-0.0056
650.6742	-0.0056
650.8604	0.0008
651.0466	0.0017
651.2327	0.0014
651.4188	0.0002
651.6049	0.0023
651.791	0.0008
651.9771	0.0015
652.1632	0.0029
652.3492	-0.0004
652.5352	0.0029
652.7212	0.0035
652.9072	0.0064
653.0932	0.0009
653.2791	-0.0016
653.465	-0.0033
653.651	-0.0029
653.8369	-0.0017
654.0227	0.0006
654.2086	-0.0007
654.3944	-0.0086
654.5803	-0.0105
654.7661	-0.0016
654.9519	-0.0031
655.1377	-0.0007
655.3234	-0.0001
655.5092	-0.0001
655.6949	-0.0001
655.8806	-0.0001
656.0663	-0.0001
656.2519	-0.0001
656.4376	-0.0005
656.6232	-0.0015
656.8088	-0.0029
656.9945	0.0007
657.18	0.0029
657.3656	-0.0001
657.5511	-0.004
657.7367	-0.0046
657.9222	0.0017
658.1077	0.0029
658.2932	0.0013
658.4786	-0.0013
658.6641	-0.0032
658.8495	-0.0036
659.0349	0.0012
659.2203	-0.0095
659.4057	-0.0074
659.591	-0.0004
659.7764	-0.0092
659.9617	-0.0049
660.147	-0.0022
660.3323	-0.0068
660.5176	-0.0107
660.7028	-0.0053
660.888	-0.0037
661.0733	0.0013
661.2585	-0.0122
661.4436	0.0007
661.6288	-0.003
661.8139	0.0067
661.9991	0.0023
662.1842	-0.0034
662.3693	-0.0056
662.5544	-0.001
662.7394	0.0002
662.9245	-0.0039
663.1095	0.0029
663.2945	-0.0018
663.4795	-0.0033
663.6644	-0.0069
663.8494	-0.0036
664.0343	-0.0026
664.2193	-0.0099
664.4042	-0.0089
664.589	-0.0061
664.7739	-0.0068
664.9587	0.0028
665.1436	0.0042
665.3284	-0.0033
665.5132	-0.0028
665.698	0.0007
665.8827	0.0037
666.0675	-0.0053
666.2522	-0.0057
666.4369	-0.0078
666.6216	-0.0127
666.8063	-0.0064
666.9909	-0.0107
667.1756	-0.0058
667.3602	-0.0087
667.5448	-0.011
667.7294	-0.0018
667.9139	-0.0061
668.0985	-0.0112
668.283	-0.0016
668.4675	-0.0125
668.652	-0.0062
668.8365	-0.0063
669.0209	-0.0068
669.2054	-0.0102
669.3898	-0.0101
669.5742	-0.0061
669.7586	-0.0025
669.943	-0.0036
670.1273	-0.0069
670.3117	-0.0045
670.496	-0.0099
670.6803	0.0002
670.8646	-0.0039
671.0488	0.0019
671.2331	-0.0057
671.4173	0.0014
671.6015	-0.0024
671.7857	-0.0074
671.9699	-0.0023
672.1541	-0.0018
672.3382	-0.0056
672.5223	-0.0066
672.7064	-0.0128
672.8905	-0.0129
673.0746	-0.0075
673.2587	-0.0158
673.4427	-0.0129
673.6267	-0.013
673.8107	-0.0129
673.9947	-0.01
674.1787	-0.0089
674.3626	-0.0064
674.5465	-0.0071
674.7304	0.0013
674.9143	-0.0003
675.0982	0.0009
675.2821	-0.0038
675.4659	0.0009
675.6497	-0.0013
675.8335	-0.0032
676.0173	-0.0058
676.2011	-0.0048
676.3849	-0.0054
676.5686	-0.0008
676.7523	-0.0021
676.936	-0.0007
677.1197	-0.0042
677.3034	-0.0066
677.487	-0.0053
677.6706	-0.004
677.8542	-0.0014
678.0378	-0.0005
678.2214	-0.0104
678.405	-0.0035
678.5885	-0.0063
678.772	-0.0067
678.9555	-0.001
679.139	-0.008
679.3225	-0.0061
679.5059	-0.005
679.6894	-0.0042
679.8728	0.0026
680.0562	-0.0037
680.2395	-0.0048
680.4229	-0.0028
680.6062	0.0027
680.7896	-0.0012
680.9729	-0.0022
681.1562	0.0004
681.3394	0.0032
681.5227	-0.0047
681.7059	-0.0011
681.8891	-0.009
682.0723	-0.0027
682.2555	-0.0009
682.4387	-0.0007
682.6218	-0.0026
682.805	-0.0022
682.9881	-0.0061
683.1712	0.0011
683.3542	0.0007
683.5373	-0.0097
683.7203	-0.0035
683.9034	-0.0046
684.0864	-0.0045
684.2694	-0.0047
684.4523	-0.0033
684.6353	0.0024
684.8182	-0.0036
685.0011	-0.0051
685.184	-0.0048
685.3669	-0.0048
685.5498	-0.0042
685.7326	0.0021
685.9154	-0.0018
686.0982	-0.0051
686.281	-0.0069
686.4638	0.0032
686.6465	-0.0032
686.8293	-0.0092
687.012	-0.0024
687.1947	-0.0075
687.3774	-0.0035
687.56	-0.0021
687.7427	-0
687.9253	0.0023
688.1079	0.0027
688.2905	-0.0008
688.4731	-0.0032
688.6556	-0.0051
688.8382	-0.0058
689.0207	0.0021
689.2032	0.0008
689.3857	0.0023
689.5681	-0.0058
689.7506	0.0024
689.933	-0.0001
690.1154	0.001
690.2978	-0.0002
690.4802	-0.0008
690.6626	0.004
690.8449	0.0049
691.0272	0.0026
691.2095	0.0024
691.3918	0.0013
691.5741	-0.0017
691.7563	-0.0004
691.9386	-0.005
692.1208	-0.0046
692.303	-0.0045
692.4852	-0.0015
692.6673	-0.0026
692.8495	-0.0065
693.0316	-0.0019
693.2137	-0.0055
693.3958	-0.0041
693.5778	0.0001
693.7599	-0.0065
693.9419	-0.007
694.1239	-0.0035
694.3059	-0.0063
694.4879	-0.0081
694.6699	-0.0095
694.8518	-0.006
695.0337	-0.0029
695.2157	0.0006
695.3975	-0.0057
695.5794	-0.0037
695.7613	-0.0037
695.9431	-0.0082
696.1249	-0.0073
696.3067	-0.0056
696.4885	0.0031
696.6703	-0.0018
696.852	-0.0026
697.0337	-0.0009
697.2154	-0.0015
697.3971	-0.0102
697.5788	-0.0014
697.7605	-0.0028
697.9421	-0.0028
698.1237	-0.0027
698.3053	-0.0056
698.4869	0.0013
698.6685	-0.0061
698.85	-0.0048
699.0315	0.0002
699.213	0.0009
699.3945	0.0068
699.576	0.0072
699.7575	-0.0007
699.9389	0.0026
700.1203	-0.0043
700.3017	-0.0057
700.4831	-0.0067
700.6645	-0.0106
700.8458	-0.0034
701.0271	-0.0052
701.2084	-0.0105
701.3897	-0.0019
701.571	0.0038
701.7523	0.0003
701.9335	0.0024
702.1147	0.0044
702.2959	-0.0039
702.4771	0.0032
702.6583	-0.0036
702.8394	-0.0004
703.0205	0.0011
703.2016	-0.0035
703.3827	0.0007
703.5638	-0.008
703.7449	-0.0054
703.9259	-0.0022
704.1069	-0.0002
704.2879	-0.0021
704.4689	-0.0037
704.6499	0.0045
704.8308	-0.0012
705.0117	0.0011
705.1927	-0.0031
705.3735	0.0006
705.5544	-0.0011
705.7353	0.0033
705.9161	0.0015
706.0969	0.004
706.2777	-0.0055
706.4585	0.0001
706.6393	-0.0023
706.82	0.0004
707.0007	-0.0068
707.1815	0.0034
707.3621	-0.0041
707.5428	-0.0012
707.7235	-0.0065
707.9041	-0.0023
708.0847	-0.0023
708.2653	-0.0058
708.4459	-0.0089
708.6265	-0.0011
708.807	-0
708.9875	-0.0036
709.168	-0.0045
709.3485	-0.0033
709.529	-0.0014
709.7095	-0.0084
709.8899	-0.0067
710.0703	0.0015
710.2507	-0.0012
710.4311	0.0006
710.6115	0.0013
710.7918	-0.0019
710.9721	0.0038
711.1524	0.0023
711.3327	-0.0019
711.513	-0.0014
711.6932	-0.0072
711.8735	-0.0034
712.0537	-0.0015
712.2339	-0.0017
712.4141	-0.0021
712.5942	0.0003
712.7744	-0.0009
712.9545	0.0013
713.1346	-0.0029
713.3147	0.0056
713.4947	0.0047
713.6748	-0.004
713.8548	-0.0046
714.0348	-0.0044
714.2148	-0.0052
714.3948	-0.0053
714.5748	-0.0069
714.7547	-0.0043
714.9346	-0.0014
715.1145	-0.0003
715.2944	0.0008
715.4743	-0.0066
715.6541	-0.0046
715.834	-0.0045
716.0138	-0.0021
716.1936	0.0007
716.3733	-0.0061
716.5531	-0.0029
716.7328	-0.0043
716.9126	0.0006
717.0923	-0.0031
717.2719	-0.008
717.4516	-0.0054
717.6312	0.0018
717.8109	0.0037
717.9905	-0.0035
718.1701	0.0016
718.3496	-0.0011
718.5292	-0.0016
718.7087	-0.0059
718.8882	-0.0043
719.0677	0.0005
719.2472	-0.0016
719.4267	-0.0086
719.6061	-0.0085
719.7856	-0.0017
719.965	-0.0074
720.1443	-0.0071
720.3237	-0.0028
720.5031	-0.0119
720.6824	-0.0018
720.8617	-0.0081
721.041	-0.0026
721.2203	-0.0055
721.3995	-0.003
721.5788	-0.0072
721.758	-0
721.9372	-0.0036
722.1164	-0.009
722.2956	-0.0083
722.4747	-0.007
722.6538	-0.0079
722.8329	-0.0053
723.012	0.001
723.1911	0.0015
723.3702	0.0004
723.5492	-0.0035
723.7282	-0.0054
723.9072	-0.0046
724.0862	0.0009
724.2652	-0.0007
724.4441	-0.004
724.623	-0.0011
724.8019	-0.0018
724.9808	-0.0022
725.1597	-0.0001
725.3385	0.0059
725.5174	0.0027
725.6962	-0.0063
725.875	0.0004
726.0538	0.0096
726.2325	0.0005
726.4112	-0.0039
726.59	-0.0015
726.7687	0.0002
726.9474	-0.007
727.126	-0.0068
727.3047	-0.0039
727.4833	0.0035
727.6619	-0.0081
727.8405	-0.003
728.0191	0.0045
728.1976	-0.0098
728.3762	-0.0047
728.5547	-0.006
728.7332	-0.0089
728.9116	-0.011
729.0901	-0.0071
729.2686	-0.0132
729.447	-0.0022
729.6254	-0.0082
729.8038	-0.0061
729.9821	0.0018
730.1605	-0.0027
730.3388	0.0002
730.5171	-0.0026
730.6954	0.0034
730.8737	-0.0013
731.0519	0.0027
731.2302	0.0012
731.4084	0.003
731.5866	0.001
731.7648	0.0047
731.9429	0.0034
732.1211	0.0051
732.2992	-0.0031
732.4773	-0
732.6554	0.0016
732.8335	-0.011
733.0115	-0.0063
733.1896	-0.0104
733.3676	-0.0036
733.5456	-0.0001
733.7235	-0.0069
733.9015	0.0048
734.0794	0.0031
734.2574	-0.0061
734.4353	-0.0003
734.6131	0.004
734.791	-0.0043
734.9689	-0.003
735.1467	0.0059
735.3245	-0.0046
735.5023	-0.0037
735.68	-0.0015
735.8578	-0.0012
736.0355	0.0055
736.2132	0.0009
736.3909	-0.0029
736.5686	0.0005
736.7463	-0.0026
736.9239	-0.0038
737.1015	-0.0031
737.2791	-0.0032
737.4567	-0.0088
737.6343	-0.0004
737.8118	-0.0068
737.9894	-0.0011
738.1669	-0.0019
738.3444	-0.0041
738.5218	-0.0034
738.6993	0.0009
738.8767	-0.0014
739.0541	-0.0014
739.2315	-0.0057
739.4089	0.0035
739.5863	-0.0046
739.7636	-0.0024
739.9409	-0.003
740.1182	0.0049
740.2955	0.0032
740.4728	-0.0008
740.65	-0.0038
740.8272	0.0035
741.0044	-0.003
741.1816	0.0018
741.3588	-0.0011
741.5359	0.0012
741.7131	0.005
741.8902	-0.0002
742.0673	0.0008
742.2444	-0.0005
742.4214	-0.0046
742.5985	-0.0054
742.7755	-0.0043
742.9525	-0.0036
743.1295	-0.0016
743.3064	-0.0096
743.4834	0.0004
743.6603	0.0008
743.8372	0.0003
744.0141	-0.0008
744.191	-0.0029
744.3678	-0.0044
744.5446	-0.0017
744.7215	-0.0062
744.8982	-0.0022
745.075	-0.0012
745.2518	-0.0018
745.4285	-0.0011
745.6052	0.0014
745.7819	0.0032
745.9586	0.002
746.1353	-0.0017
746.3119	0.0045
746.4885	-0.0087
746.6651	-0.0062
746.8417	-0.0061
747.0183	-0.0039
747.1948	-0.0042
747.3714	-0.0044
747.5479	-0.0019
747.7244	-0.0031
747.9008	-0.0012
748.0773	0.0003
748.2537	0.0059
748.4301	0.0092
748.6065	-0.0026
748.7829	0.0072
748.9593	0.0023
749.1356	-0.0093
749.3119	-0.0024
749.4882	0.0046
749.6645	0.0053
749.8408	-0.0002
750.017	-0.0036
750.1933	-0.0044
750.3695	-0.0051
750.5457	-0.0009
750.7218	-0.0099
750.898	-0.0035
751.0741	-0.0087
751.2502	0.0002
751.4263	-0.0021
751.6024	-0.007
751.7784	0.0044
751.9545	-0.0002
752.1305	-0.0006
752.3065	-0.0049
752.4825	0.0012
752.6584	0.0006
752.8344	-0.003
753.0103	-0.0027
753.1862	0.0041
753.3621	-0.0022
753.5379	-0.0083
753.7138	0.0057
753.8896	-0.0082
754.0654	-0.0037
754.2412	-0.0128
754.417	-0.0044
754.5927	-0.0028
754.7685	-0.0093
754.9442	-0.0065
755.1199	-0.0051
755.2956	-0.0091
755.4712	-0.0066
755.6469	-0.0058
755.8225	-0.01
755.9981	-0.0076
756.1736	-0.0015
756.3492	-0.009
756.5248	0.0013
756.7003	-0.009
756.8758	-0.0065
757.0513	-0.0086
757.2267	-0.0077
757.4022	-0.0099
757.5776	-0.0116
757.753	-0.0136
757.9284	-0.0076
758.1038	-0.0062
758.2791	-0.0142
758.4545	-0.0095
758.6298	-0.0048
758.8051	-0.0091
758.9803	-0.0092
759.1556	-0.0114
759.3308	-0.0102
759.506	-0.0089
759.6812	-0.0131
759.8564	-0.0057
760.0316	-0.0071
760.2067	-0.0071
760.3819	-0.0013
760.557	-0.0061
760.732	-0.008
760.9071	-0.0102
761.0821	-0.0158
761.2572	-0.0155
761.4322	-0.0102
761.6072	-0.0125
761.7821	-0.0066
761.9571	-0.0098
762.132	-0.0049
762.3069	-0.0033
762.4818	-0.0065
762.6567	-0.0112
762.8316	0.0003
763.0064	-0.0043
763.1812	-0.0032
763.356	-0.0026
763.5308	-0.0026
763.7055	-0.0011
763.8803	0.0011
764.055	-0.0035
764.2297	0.0025
764.4044	-0.0012
764.579	-0.0001
764.7537	-0.0028
764.9283	-0.0106
765.1029	0.005
765.2775	0.0068
765.4521	0.008
765.6266	-0.0008
765.8011	0.0079
765.9756	0.0028
766.1501	0.0063
766.3246	-0.0026
766.4991	-0.0034
766.6735	-0.0014
766.8479	-0.0066
767.0223	0.0008
767.1967	-0.0052
767.371	-0.0012
767.5454	-0.0037
767.7197	0.001
767.894	-0.001
768.0683	-0.0011
768.2425	-0.0043
768.4168	-0.0099
768.591	0.0053
768.7652	-0.0045
768.9394	0.002
769.1135	0.0029
769.2877	0.0052
769.4618	0.0108
769.6359	-0.0028
769.81	-0.006
769.984	-0.0121
770.1581	0.0023
770.3321	0.0043
770.5061	0.0013
770.6801	-0.0002
770.8541	0.0006
771.028	0.0022
771.202	0.0033
771.3759	-0.0015
771.5498	0.0079
771.7236	0.0031
771.8975	0.0019
772.0713	-0.0012
772.2451	0.0074
772.4189	0.0006
772.5927	-0.0069
772.7665	-0.0041
772.9402	-0.0026
773.1139	-0.0003
773.2876	-0.0013
773.4613	-0.0047
773.635	0.0016
773.8086	-0.0019
773.9822	0.0039
774.1558	-0.0006
774.3294	0.0045
774.503	-0.0008
774.6765	-0.0075
774.8501	0.0068
775.0236	-0.0116
775.1971	-0.0027
775.3705	0.0044
775.544	-0.0001
775.7174	-0.0012
775.8908	-0.0027
776.0642	0.0011
776.2376	-0.0019
776.4109	-0.0128
776.5843	0.0055
776.7576	-0.0062
776.9309	-0.0013
777.1041	-0.0062
777.2774	0.0057
777.4506	-0.0012
777.6238	0.0037
777.797	0.0008
777.9702	-0.0011
778.1434	-0.0045
778.3165	-0.0023
778.4896	-0.0093
778.6627	-0.0028
778.8358	-0.0067
779.0089	0.001
779.1819	0.0021
779.3549	-0.0044
779.5279	-0.0001
779.7009	-0.0085
779.8739	-0.0018
780.0468	-0.0044
780.2197	-0.005
780.3926	-0.0067
780.5655	-0.0137
780.7384	-0.0045
780.9112	-0.0053
781.0841	-0.0049
781.2569	0.0007
781.4297	-0.0049
781.6024	0.0013
781.7752	0.0035
781.9479	0.0006
782.1206	0.0006
782.2933	-0.0067
782.466	-0.0032
782.6386	-0.0038
782.8113	-0.0136
782.9839	-0.0037
783.1565	-0.0086
783.329	-0.0108
783.5016	-0.0001
783.6741	-0.0113
783.8466	-0.0115
784.0191	-0.0074
784.1916	0.0007
784.3641	-0.0025
784.5365	-0.0055
784.7089	-0.0024
784.8813	0.0062
785.0537	0.0087
785.2261	0.0022
785.3984	0.0045
785.5707	0.0009
785.743	0.0082
785.9153	-0.0018
786.0876	0.0031
786.2598	0.0073
786.432	0.0052
786.6042	0.0049
786.7764	0.0043
786.9486	0.0068
787.1207	-0.0092
787.2928	0.0033
787.4649	-0.0039
787.637	-0.0106
787.8091	0.0008
787.9811	0.0078
788.1532	0.0036
788.3252	-0.0134
788.4972	-0.0017
788.6691	-0.0003
788.8411	0.0003
789.013	-0.0011
789.1849	0.0043
789.3568	-0.0081
789.5287	-0.0019
789.7005	-0.0043
789.8723	-0.0041
790.0442	-0.0085
790.2159	0.0029
790.3877	-0.0069
790.5595	-0.0015
790.7312	-0.003
790.9029	-0.0082
791.0746	-0.0061
791.2463	0.0002
791.4179	-0.0063
791.5896	-0.0037
791.7612	0.0075
791.9328	-0.0052
792.1044	-0.0036
792.2759	0.0073
792.4474	-0.0053
792.619	-0.0121
792.7905	-0.0068
792.9619	-0.0012
793.1334	-0.0035
793.3048	-0.0106
793.4762	0.001
793.6476	-0.0175
793.819	-0.012
793.9904	-0.0082
794.1617	-0.0131
794.333	-0.0108
794.5043	-0.0051
794.6756	0.0059
794.8469	-0.0035
795.0181	-0.0047
795.1893	-0.009
795.3605	-0.002
795.5317	0.0012
795.7029	-0.0091
795.874	-0.0088
796.0452	-0.0095
796.2163	-0.0095
796.3873	-0.0058
796.5584	-0.0027
796.7294	-0.0131
796.9005	-0.0112
797.0715	-0.0119
797.2425	-0.0164
797.4134	-0.0052
797.5844	-0.0102
797.7553	-0.0182
797.9262	-0.0188
798.0971	-0.018
798.2679	-0.0086
798.4388	-0.0107
798.6096	-0.0122
798.7804	-0.0211
798.9512	-0.0124
799.122	-0.0069
799.2927	-0.0164
799.4635	-0.004
799.6342	-0.0128
799.8049	-0.0089
799.9755	-0.0009
800.1462	-0.0169
800.3168	-0.0038
800.4874	-0.0119
800.658	-0.0283
800.8286	-0.0095
800.9991	-0.0127
801.1696	-0.0131
801.3402	-0.0182
801.5106	-0.0166
801.6811	-0.0183
801.8516	-0.012
802.022	-0.0282
802.1924	-0.0293
802.3628	-0.0094
802.5332	-0.013
802.7035	-0.0248
802.8739	-0.0146
803.0442	-0.0129
803.2145	-0.0151
803.3847	-0.0186
803.555	-0.0216
803.7252	-0.0071
803.8954	-0.02
804.0656	-0.003
804.2358	-0.0191
804.4059	-0.0124
804.5761	-0.0083
804.7462	-0.0083
804.9163	-0.0185
805.0864	-0.0077
805.2564	-0.0121
805.4264	-0.0183
805.5965	-0.0157
805.7665	-0.0123
805.9364	-0.001
806.1064	-0.0147
806.2763	-0.0149
806.4462	-0.0001
806.6161	-0.0163
806.786	-0.0123
806.9559	-0.0094
807.1257	-0.0017
807.2955	-0.0136
807.4653	-0.0114
807.6351	0.0031
807.8048	0.0056
807.9746	0.0003
808.1443	-0.0029
808.314	-0.0057
808.4837	0.0043
808.6533	-0.0046
808.8229	-0.0042
808.9926	0.0056
809.1622	0.0004
809.3317	0.0115
809.5013	0.0028
809.6708	0.001
809.8403	0.0048
810.0098	0.0131
810.1793	-0.0208
810.3488	0.0037
810.5182	-0.0043
810.6876	-0.0084
810.857	-0.0127
811.0264	-0.0211
811.1958	-0.0037
811.3651	-0.0063
811.5344	-0.0103
811.7037	-0.0072
811.873	-0.0053
812.0422	-0.0106
812.2115	-0.001
812.3807	0.0007
812.5499	-0.0086
812.7191	-0.0184
812.8882	0.0016
813.0574	-0.0065
813.2265	0.0022
813.3956	-0.0084
813.5646	-0.0069
813.7337	0.0001
813.9027	0.008
814.0718	-0.0123
814.2407	-0.0012
814.4097	-0.0108
814.5787	0.0033
814.7476	-0.0007
814.9165	-0.003
815.0854	-0.0205
815.2543	0.0026
815.4232	-0.0122
815.592	0.0056
815.7608	0.0051
815.9296	-0.0026
816.0984	0.001
816.2671	-0.005
816.4359	0.0028
816.6046	0.0132
816.7733	-0.0052
816.942	-0.0012
817.1106	-0.0029
817.2793	-0.0075
817.4479	-0.0016
817.6165	-0.0058
817.785	-0.0111
817.9536	-0.0079
818.1221	0.0069
818.2906	-0.0082
818.4591	-0.0137
818.6276	0.0137
818.7961	-0.0019
818.9645	-0.0117
819.1329	-0.0113
819.3013	-0.0074
819.4697	-0.0008
819.638	-0.0071
819.8064	-0.0063
819.9747	0.0032
820.143	-0.0025
820.3113	-0.0157
820.4795	0.0073
820.6477	-0.0141
820.816	-0.0022
820.9842	-0.0022
821.1523	-0.0243
821.3205	-0.0084
821.4886	0.0032
821.6567	-0.0065
821.8248	-0.0087
821.9929	-0.0104
822.1609	0.0008
822.329	-0.0119
822.497	-0.0089
822.665	-0.0051
822.833	-0.0355
823.0009	-0.0172
823.1688	-0.01
823.3367	0.0172
823.5046	-0.0103
823.6725	-0.0175
823.8404	-0.006
824.0082	-0.0068
824.176	0.0001
824.3438	-0.0074
824.5116	-0.0036
824.6793	-0.0095
824.847	-0.0058
825.0147	0.0037
825.1824	-0.0272
825.3501	-0
825.5177	-0.005
825.6854	0.0109
825.853	-0.0029
826.0206	-0.0163
826.1881	-0.0032
826.3557	0.0022
826.5232	-0.0039
826.6907	0.0069
826.8582	-0.0008
827.0257	-0.0112
827.1931	0.009
827.3605	0.0003
827.528	0.0027
827.6953	0.0112
827.8627	-0.0118
828.03	-0.0066
828.1974	0.0112
828.3647	0.0048
828.532	-0.003
828.6992	-0.0096
828.8665	-0.02
829.0337	0.0008
829.2009	-0.0072
829.3681	-0.01
829.5352	0.0009
829.7024	-0.0027
829.8695	-0.0394
830.0366	-0.0248
830.2037	0.0011
830.3707	-0.0072
830.5378	-0.0194
830.7048	-0.0211
830.8718	-0.0142
831.0388	-0.0078
831.2057	-0.0202
831.3727	-0.0101
831.5396	0.0046
831.7065	0.0067
831.8734	0.0048
832.0402	-0.0106
832.2071	-0.0062
832.3739	0.0081
832.5407	-0.0057
832.7075	-0.0043
832.8742	0.0076
833.041	0.0054
833.2077	-0.0298
833.3744	0.0116
833.541	-0.0009
833.7077	0.0006
833.8743	0.0025
834.0409	0.0061
834.2075	0.0211
834.3741	-0.0127
834.5407	-0.0058
834.7072	-0.0094
834.8737	-0.0067
835.0402	-0.0298
835.2067	-0.0051
835.3731	0.0064
835.5395	0.0065
835.706	-0.0093
835.8723	-0.0178
836.0387	-0.0171
836.2051	-0.0068
836.3714	0.0279
836.5377	0.0037
836.704	0.0053
836.8703	-0.0153
837.0365	0.0051
837.2027	-0.0177
837.3689	0.0007
837.5351	0.0043
837.7013	0.0047
837.8674	0.0086
838.0335	-0.0047
838.1997	0.0103
838.3657	0.0115
838.5318	-0.0023
838.6978	-0.0361
838.8639	0.009
839.0299	-0.019
839.1958	0.0271
839.3618	0.0176
839.5277	-0.0232
839.6937	0.0061
839.8596	-0.0088
840.0254	-0.0066
840.1913	-0.0029
840.3571	0.0149
840.523	0.0106
840.6888	-0.0112
840.8545	-0.0075
841.0203	-0.0112
841.186	0.0119
841.3517	-0.0134
841.5174	-0.0144
841.6831	0.0024
841.8488	0.0112
842.0144	0.0203
842.18	0.0121
842.3456	0.0009
842.5112	-0.0041
842.6767	-0.016
842.8422	-0.0051
843.0077	-0.0004
843.1732	0.0112
843.3387	-0.0271
843.5042	0.0053
843.6696	0.0134
843.835	-0.0164
844.0004	0.0199
844.1657	-0.0059
844.3311	-0.0129
844.4964	-0.0012
844.6617	0.0028
844.827	-0.0068
844.9923	-0.0012
845.1575	0.0182
845.3227	-0.0248
845.4879	0.0034
845.6531	-0.0177
845.8183	-0.0206
845.9834	-0.0298
846.1485	0.013
846.3136	-0.0506
846.4787	-0.0298
846.6438	-0.0005
846.8088	0.0097
846.9738	-0.0108
847.1388	-0.0035
847.3038	0.0176
847.4687	-0.0148
847.6337	0.045
847.7986	0.0325
847.9635	0.0301
848.1284	-0.0049
848.2932	-0.0039
848.458	0.0027
848.6228	-0.0105
848.7876	-0.0666
848.9524	0.0221
849.1172	-0.0188
849.2819	-0.0001
849.4466	-0.0027
849.6113	-0.0167
849.7759	0.0031
849.9406	-0.006
850.1052	0.032
850.2698	0.0284
850.4344	0.0112
850.599	-0.0272
850.7635	0.0276
850.928	-0.0231
851.0925	0.0363
851.257	0.0219
851.4215	0.0005
851.5859	0.0347
851.7503	0.0235
851.9147	-0.0041
852.0791	-0.0067
852.2434	0.0287
852.4078	0.0101
852.5721	-0.0086
852.7364	-0.0591
852.9007	0.0339
853.0649	-0.0022
853.2291	-0.0077
853.3934	-0.0116
853.5575	0.0183
853.7217	-0.0267
853.8859	-0.0116
854.05	0.0116
854.2141	-0.028
854.3782	0.0324
854.5423	-0.0262
854.7063	0.0438
854.8703	-0.006
855.0343	0.0112
855.1983	-0.0281
855.3623	0.0089
855.5262	0.0417
855.6901	-0.0457
855.854	-0.0245
856.0179	0.0331
856.1818	-0.0156
856.3456	-0.0705
856.5094	-0.0054
856.6732	-0.1024
856.837	-0.0194
857.0008	0.0338
857.1645	0.0617
857.3282	-0.0201
857.4919	-0.0813
857.6556	0.0462
857.8192	0.0063
857.9828	-0.0208
858.1465	0.0481
858.31	-0.0411
858.4736	-0.0983
858.6372	-0.0014
858.8007	-0.0066
858.9642	-0.0343
859.1277	0.0578
859.2911	0.0062
859.4546	-0.0398
859.618	-0.0299
859.7814	-0.0176
859.9448	-0.0575
860.1081	-0.0681
860.2715	0.0134
860.4348	-0.0391
860.5981	-0.055
860.7614	-0.1145
860.9246	-0.0683
861.0879	0.013
861.2511	0.0403
861.4143	-0.1161
861.5774	-0.0657
861.7406	0.0146
861.9037	-0.0903
862.0668	-0.0373
862.2299	-0.0226
862.393	-0.0441
862.556	0.0394
862.7191	-0.0674
862.8821	-0.0152
863.0451	0.0506
863.208	-0.078
863.371	0.0251
863.5339	-0.0107
863.6968	-0.0773
863.8597	0.0206
864.0225	-0.2065
864.1854	0.0185
864.3482	-0.1246
864.511	0.0493
864.6737	0.0037
864.8365	0.0608
864.9992	-0.0881
865.1619	-0.0622
865.3246	0.0208
865.4873	0.1883
865.65	0.002
865.8126	-0.0216
865.9752	-0.1162
866.1378	-0.1431
866.3004	0.1533
866.4629	-0.0998
866.6254	0.0688
866.7879	-0.2564
866.9504	-0.197
867.1129	-0.1677
867.2753	0.0429
867.4377	0.0169
867.6001	-0.2439
867.7625	0.1455
867.9249	-0.0568
868.0872	0.0678
868.2495	-0.1462
868.4118	-0.1499
868.5741	-0.1147
868.7363	0.2576
868.8986	-0.0469
869.0608	0.0161
869.223	0.0368
869.3851	-0.0473
869.5473	-0.2614
869.7094	0.6767
869.8715	-0.0012
870.0336	-0.085
870.1957	-0.0135
870.3577	0.179
870.5197	-0.581
870.6817	0.0309
870.8437	-0.2256
871.0057	-0.2172
871.1676	-0.0122
871.3295	-0.3183
871.4914	-0.1114
871.6533	0.28
871.8151	0.0154
871.977	-0.0088
872.1388	-0.1674
872.3006	-0.1055
872.4623	0.0965
872.6241	-0.0074
872.7858	-0.0618
872.9475	-0.2343
873.1092	-0.1905
873.2709	-0.2211
873.4325	-0.4075
873.5941	-0.0723
873.7557	-0.0804
873.9173	-0.2465
874.0789	-0.2041
874.2404	-0.1071
874.4019	-0.4368
874.5634	-0.1682
874.7249	-0.1866
874.8863	-0.1887
875.0478	0.0359
875.2092	-0.1447
875.3706	-0.0917
875.5319	-0.1222
875.6933	-0.2679
875.8546	0.0711
876.0159	0.2096
876.1772	-0.4451
876.3385	-0.6885
876.4997	-0.3368
876.6609	0.0858
876.8221	0.2131
876.9833	-0.3697
877.1445	-0.2059
877.3056	0.0579
877.4667	-0.8685
877.6278	0.0872
877.7889	0.005
877.9499	-0.4899
878.111	-0.0587
878.272	-0.0745
878.433	0.0618
878.5939	0.0177
878.7549	-0.401
878.9158	-0.1936
879.0767	-0.0113
879.2376	0.0283
879.3984	-0.238
879.5593	-0.0651
879.7201	-0
879.8809	0.0622
880.0417	-0.1839
880.2024	-0.2325
880.3632	-0.441
880.5239	-0
880.6846	-0.4836
880.8452	0.0746
881.0059	-0.0764
881.1665	0.1105
881.3271	-0.3502
881.4877	-0.1797
881.6483	-0
881.8088	-0.4127
881.9693	-0.0438
882.1298	-0.0438
882.2903	-0.0438
