Data from MonoPyChalIsomerACN10uM450nmA_Absorbance_13-11-21-891.txt Node
Date: Tue Jul 09 13:11:21 BST 2024
User: LASERRRRR
Spectrometer: FLMT03099
Trigger mode: 0
Integration Time (sec): 2.000000E-1
Scans to average: 1
Electric dark correction enabled: true
Nonlinearity correction enabled: false
Boxcar width: 0
XAxis mode: Wavelengths
Number of Pixels in Spectrum: 3648
>>>>>Begin Spectral Data<<<<<
179.3399	-0.2042
179.5586	-0.2042
179.7771	-0.2042
179.9957	0.0066
180.2143	-0
180.4329	-0
180.6514	-0
180.8699	-0
181.0885	-0.5024
181.307	-0
181.5255	-0.0428
181.744	-0
181.9625	0.6012
182.181	-0
182.3994	1.039
182.6179	-0.1384
182.8363	-0.5133
183.0547	0.145
183.2732	0.1632
183.4916	0.0007
183.71	0.0262
183.9284	0.0478
184.1467	0.0597
184.3651	0.1203
184.5835	0.1364
184.8018	0.0344
185.0201	0.1065
185.2385	0.0123
185.4568	-0.0073
185.6751	0.2222
185.8934	-0.0258
186.1117	-0.0063
186.3299	0.0446
186.5482	0.0059
186.7664	0.0719
186.9847	0.0741
187.2029	0.1225
187.4211	0.034
187.6393	0.0169
187.8575	0.0591
188.0757	0.0925
188.2939	0.147
188.512	-0.0161
188.7302	0.0487
188.9483	0.0813
189.1665	0.3021
189.3846	0.1881
189.6027	-0.0138
189.8208	0.0489
190.0389	0.2613
190.257	0.1904
190.475	0.333
190.6931	0.0579
190.9111	0.332
191.1292	0.245
191.3472	0.3006
191.5652	0.4111
191.7832	0.3462
192.0012	0.3456
192.2192	0.4972
192.4371	0.5225
192.6551	0.5009
192.873	0.389
193.091	0.5872
193.3089	0.755
193.5268	0.5003
193.7447	0.4255
193.9626	0.5226
194.1805	0.5453
194.3984	0.5046
194.6162	0.5711
194.8341	0.5501
195.0519	0.5341
195.2697	0.5613
195.4875	0.6398
195.7054	0.635
195.9231	0.6695
196.1409	0.7086
196.3587	0.6229
196.5765	0.6305
196.7942	0.7058
197.012	0.6159
197.2297	0.6935
197.4474	0.7869
197.6651	0.6529
197.8828	0.798
198.1005	0.7506
198.3182	0.76
198.5358	0.7283
198.7535	0.7722
198.9711	0.9375
199.1888	0.8156
199.4064	0.8259
199.624	0.7661
199.8416	0.9045
200.0592	0.7661
200.2767	0.7675
200.4943	0.8409
200.7119	0.8699
200.9294	0.9163
201.1469	0.8848
201.3645	0.8082
201.582	0.9069
201.7995	0.7632
202.017	0.9151
202.2344	0.8269
202.4519	0.9923
202.6694	0.911
202.8868	0.987
203.1042	0.9548
203.3217	0.9292
203.5391	0.9859
203.7565	0.8359
203.9739	0.9445
204.1913	0.8654
204.4086	0.9276
204.626	1.05
204.8433	0.8517
205.0607	1.0621
205.278	0.8725
205.4953	1.1883
205.7126	0.9628
205.9299	1.0261
206.1472	0.9358
206.3644	0.9658
206.5817	1.0223
206.7989	0.9547
207.0162	1.1291
207.2334	0.9366
207.4506	0.9464
207.6678	1.0678
207.885	1.1007
208.1022	1.0453
208.3194	1.1625
208.5365	1.0503
208.7537	0.9967
208.9708	1.0992
209.1879	1.0356
209.405	1.1271
209.6222	1.018
209.8392	1.1648
210.0563	0.9827
210.2734	1.0701
210.4905	1.1031
210.7075	1.0381
210.9245	0.9421
211.1416	1.1803
211.3586	1.0326
211.5756	1.1098
211.7926	1.0503
212.0096	1.0429
212.2265	1.0243
212.4435	1.0523
212.6604	1.114
212.8774	1.0099
213.0943	1.001
213.3112	1.0133
213.5281	1.0857
213.745	0.9868
213.9619	0.9712
214.1788	0.998
214.3956	0.9148
214.6125	0.8812
214.8293	0.8698
215.0461	0.8855
215.2629	0.8983
215.4798	0.8453
215.6965	0.8444
215.9133	0.8628
216.1301	0.8146
216.3469	0.7854
216.5636	0.8037
216.7803	0.7615
216.9971	0.7689
217.2138	0.7214
217.4305	0.7067
217.6472	0.7198
217.8639	0.6512
218.0805	0.6102
218.2972	0.5471
218.5138	0.5439
218.7305	0.4988
218.9471	0.4701
219.1637	0.4604
219.3803	0.4141
219.5969	0.4
219.8135	0.3901
220.0301	0.3472
220.2466	0.3514
220.4632	0.3426
220.6797	0.3017
220.8962	0.3229
221.1127	0.2975
221.3292	0.3048
221.5457	0.2976
221.7622	0.298
221.9787	0.2797
222.1951	0.2911
222.4116	0.277
222.628	0.2593
222.8444	0.2787
223.0608	0.2638
223.2772	0.2697
223.4936	0.2625
223.71	0.2743
223.9264	0.2713
224.1427	0.2675
224.3591	0.2682
224.5754	0.2807
224.7917	0.2796
225.008	0.274
225.2243	0.2789
225.4406	0.2962
225.6569	0.2744
225.8732	0.2911
226.0894	0.2779
226.3057	0.2915
226.5219	0.2862
226.7381	0.29
226.9543	0.2748
227.1705	0.2955
227.3867	0.3091
227.6029	0.3058
227.8191	0.2934
228.0352	0.3108
228.2513	0.3119
228.4675	0.3169
228.6836	0.3302
228.8997	0.3079
229.1158	0.3164
229.3319	0.3121
229.548	0.3175
229.764	0.3257
229.9801	0.33
230.1961	0.3352
230.4121	0.329
230.6282	0.3415
230.8442	0.3409
231.0602	0.3369
231.2761	0.3511
231.4921	0.3462
231.7081	0.3789
231.924	0.3524
232.14	0.3648
232.3559	0.3627
232.5718	0.3636
232.7877	0.3671
233.0036	0.3562
233.2195	0.3555
233.4353	0.3682
233.6512	0.3753
233.867	0.3769
234.0829	0.378
234.2987	0.3891
234.5145	0.3756
234.7303	0.3972
234.9461	0.3914
235.1619	0.4048
235.3776	0.3747
235.5934	0.4036
235.8091	0.3794
236.0249	0.3811
236.2406	0.392
236.4563	0.4054
236.672	0.4021
236.8877	0.4118
237.1034	0.3942
237.319	0.4062
237.5347	0.4161
237.7503	0.4141
237.966	0.4122
238.1816	0.4039
238.3972	0.4217
238.6128	0.4091
238.8284	0.4227
239.0439	0.4135
239.2595	0.4332
239.475	0.4115
239.6906	0.407
239.9061	0.4132
240.1216	0.4167
240.3371	0.424
240.5526	0.4199
240.7681	0.4119
240.9836	0.4153
241.199	0.4048
241.4145	0.4043
241.6299	0.4017
241.8453	0.3953
242.0607	0.3713
242.2761	0.3989
242.4915	0.3707
242.7069	0.3866
242.9223	0.36
243.1376	0.3684
243.353	0.3524
243.5683	0.3497
243.7836	0.3466
243.9989	0.3349
244.2142	0.3335
244.4295	0.3368
244.6448	0.3317
244.86	0.3275
245.0753	0.3043
245.2905	0.2977
245.5057	0.3078
245.721	0.2906
245.9362	0.2883
246.1514	0.2833
246.3665	0.2871
246.5817	0.2809
246.7969	0.2724
247.012	0.2679
247.2271	0.2661
247.4423	0.2552
247.6574	0.2591
247.8725	0.2524
248.0876	0.2446
248.3026	0.243
248.5177	0.2445
248.7328	0.2357
248.9478	0.2405
249.1628	0.2396
249.3779	0.2368
249.5929	0.2376
249.8079	0.2345
250.0228	0.2221
250.2378	0.2277
250.4528	0.2169
250.6677	0.2211
250.8827	0.2056
251.0976	0.2176
251.3125	0.2167
251.5274	0.2095
251.7423	0.2162
251.9572	0.2131
252.172	0.2135
252.3869	0.2034
252.6017	0.2074
252.8166	0.2045
253.0314	0.1979
253.2462	0.2021
253.461	0.2042
253.6758	0.2039
253.8906	0.2034
254.1053	0.2014
254.3201	0.2051
254.5348	0.2016
254.7496	0.2007
254.9643	0.1921
255.179	0.1961
255.3937	0.2003
255.6083	0.1979
255.823	0.1935
256.0377	0.1894
256.2523	0.1962
256.467	0.1988
256.6816	0.1954
256.8962	0.198
257.1108	0.1984
257.3254	0.1941
257.54	0.1946
257.7545	0.2013
257.9691	0.1906
258.1836	0.1921
258.3981	0.197
258.6127	0.2015
258.8272	0.1953
259.0417	0.2003
259.2561	0.1994
259.4706	0.1937
259.6851	0.1988
259.8995	0.1947
260.114	0.1858
260.3284	0.1969
260.5428	0.1989
260.7572	0.2009
260.9716	0.1991
261.186	0.199
261.4003	0.2051
261.6147	0.1934
261.829	0.2081
262.0433	0.1946
262.2577	0.1985
262.472	0.1896
262.6863	0.1907
262.9005	0.1958
263.1148	0.192
263.3291	0.1788
263.5433	0.1819
263.7576	0.1837
263.9718	0.1856
264.186	0.1848
264.4002	0.1864
264.6144	0.1876
264.8286	0.1803
265.0427	0.174
265.2569	0.1757
265.471	0.1841
265.6851	0.1769
265.8993	0.1746
266.1134	0.1674
266.3275	0.1806
266.5415	0.1736
266.7556	0.1848
266.9697	0.1687
267.1837	0.1761
267.3978	0.1946
267.6118	0.1876
267.8258	0.1823
268.0398	0.1977
268.2538	0.1879
268.4677	0.1902
268.6817	0.1885
268.8957	0.1892
269.1096	0.1842
269.3235	0.1785
269.5374	0.1798
269.7514	0.1671
269.9652	0.1743
270.1791	0.1657
270.393	0.1593
270.6068	0.1605
270.8207	0.1464
271.0345	0.1596
271.2483	0.1506
271.4622	0.1487
271.676	0.1477
271.8897	0.1485
272.1035	0.1391
272.3173	0.1423
272.531	0.1478
272.7448	0.1409
272.9585	0.1433
273.1722	0.1365
273.3859	0.1401
273.5996	0.1323
273.8133	0.144
274.0269	0.1436
274.2406	0.1381
274.4542	0.138
274.6679	0.1442
274.8815	0.1407
275.0951	0.1397
275.3087	0.1352
275.5223	0.1366
275.7358	0.1354
275.9494	0.1482
276.1629	0.1384
276.3765	0.1421
276.59	0.1482
276.8035	0.147
277.017	0.1414
277.2305	0.1425
277.444	0.1403
277.6574	0.144
277.8709	0.15
278.0843	0.1468
278.2978	0.1402
278.5112	0.1474
278.7246	0.1458
278.938	0.1453
279.1513	0.1468
279.3647	0.1433
279.5781	0.1409
279.7914	0.1469
280.0047	0.155
280.2181	0.1529
280.4314	0.1527
280.6447	0.1447
280.8579	0.1487
281.0712	0.1477
281.2845	0.1469
281.4977	0.1548
281.711	0.152
281.9242	0.1521
282.1374	0.1537
282.3506	0.1467
282.5638	0.1487
282.7769	0.1604
282.9901	0.156
283.2033	0.1561
283.4164	0.1528
283.6295	0.1497
283.8426	0.1534
284.0557	0.1501
284.2688	0.1554
284.4819	0.1538
284.695	0.1497
284.908	0.1574
285.1211	0.1551
285.3341	0.1508
285.5471	0.1588
285.7601	0.1521
285.9731	0.159
286.1861	0.1635
286.3991	0.1596
286.612	0.1604
286.825	0.1551
287.0379	0.1584
287.2508	0.1554
287.4637	0.1623
287.6766	0.1555
287.8895	0.1605
288.1024	0.1602
288.3152	0.1625
288.5281	0.158
288.7409	0.1611
288.9538	0.1632
289.1666	0.1645
289.3794	0.1553
289.5922	0.1617
289.8049	0.1595
290.0177	0.1608
290.2304	0.1537
290.4432	0.1612
290.6559	0.1603
290.8686	0.157
291.0813	0.1622
291.294	0.1666
291.5067	0.1624
291.7194	0.1647
291.932	0.1573
292.1447	0.1652
292.3573	0.1584
292.5699	0.1698
292.7825	0.1613
292.9951	0.1653
293.2077	0.1623
293.4203	0.1525
293.6328	0.167
293.8454	0.1573
294.0579	0.1591
294.2704	0.1607
294.4829	0.1681
294.6954	0.1591
294.9079	0.1701
295.1204	0.1606
295.3328	0.1597
295.5453	0.1537
295.7577	0.1539
295.9701	0.161
296.1825	0.1622
296.3949	0.155
296.6073	0.1614
296.8197	0.1584
297.0321	0.1689
297.2444	0.1602
297.4567	0.1603
297.6691	0.1595
297.8814	0.1606
298.0937	0.158
298.306	0.1606
298.5182	0.1526
298.7305	0.1623
298.9428	0.1584
299.155	0.1586
299.3672	0.1581
299.5794	0.1584
299.7916	0.1585
300.0038	0.1567
300.216	0.165
300.4282	0.1582
300.6403	0.1575
300.8525	0.1573
301.0646	0.1685
301.2767	0.1592
301.4888	0.1508
301.7009	0.1577
301.913	0.1633
302.125	0.1525
302.3371	0.1627
302.5491	0.1574
302.7612	0.1592
302.9732	0.1658
303.1852	0.1605
303.3972	0.1601
303.6092	0.1592
303.8211	0.1616
304.0331	0.1524
304.245	0.1554
304.457	0.1551
304.6689	0.1521
304.8808	0.1513
305.0927	0.1506
305.3046	0.1449
305.5164	0.1568
305.7283	0.1477
305.9401	0.1489
306.152	0.1533
306.3638	0.1521
306.5756	0.1439
306.7874	0.1479
306.9992	0.1386
307.2109	0.135
307.4227	0.1476
307.6344	0.1369
307.8462	0.1394
308.0579	0.1363
308.2696	0.1304
308.4813	0.1366
308.693	0.1317
308.9046	0.1289
309.1163	0.1214
309.328	0.1233
309.5396	0.1185
309.7512	0.1244
309.9628	0.1189
310.1744	0.1172
310.386	0.1128
310.5976	0.1142
310.8091	0.1137
311.0207	0.1166
311.2322	0.1171
311.4437	0.1222
311.6552	0.1104
311.8667	0.1081
312.0782	0.1125
312.2897	0.1024
312.5012	0.1066
312.7126	0.103
312.924	0.1015
313.1355	0.1052
313.3469	0.1074
313.5583	0.0971
313.7696	0.1056
313.981	0.098
314.1924	0.0973
314.4037	0.1004
314.6151	0.0934
314.8264	0.0975
315.0377	0.1004
315.249	0.0995
315.4603	0.0985
315.6716	0.0964
315.8828	0.0943
316.0941	0.0938
316.3053	0.0954
316.5165	0.0941
316.7277	0.092
316.9389	0.0992
317.1501	0.0892
317.3613	0.0922
317.5724	0.096
317.7836	0.0926
317.9947	0.1062
318.2058	0.0919
318.417	0.0891
318.6281	0.0953
318.8391	0.0957
319.0502	0.093
319.2613	0.092
319.4723	0.0945
319.6834	0.0955
319.8944	0.1049
320.1054	0.097
320.3164	0.0994
320.5274	0.099
320.7383	0.0892
320.9493	0.0961
321.1602	0.0994
321.3712	0.0972
321.5821	0.0995
321.793	0.0902
322.0039	0.0919
322.2148	0.0942
322.4257	0.0892
322.6365	0.0951
322.8474	0.0936
323.0582	0.1078
323.269	0.1047
323.4798	0.1021
323.6906	0.0967
323.9014	0.101
324.1122	0.1003
324.3229	0.099
324.5337	0.0967
324.7444	0.0943
324.9551	0.0916
325.1658	0.0993
325.3765	0.0965
325.5872	0.0988
325.7979	0.1027
326.0085	0.1054
326.2192	0.0981
326.4298	0.1051
326.6404	0.0974
326.851	0.0943
327.0616	0.1033
327.2722	0.096
327.4828	0.0951
327.6933	0.1087
327.9039	0.108
328.1144	0.0962
328.3249	0.1074
328.5354	0.1035
328.7459	0.1065
328.9564	0.0985
329.1669	0.0972
329.3773	0.0974
329.5878	0.1052
329.7982	0.1052
330.0086	0.1039
330.219	0.0972
330.4294	0.0999
330.6398	0.1019
330.8502	0.1043
331.0605	0.1041
331.2708	0.0994
331.4812	0.1008
331.6915	0.1053
331.9018	0.0969
332.1121	0.1086
332.3224	0.1001
332.5326	0.0975
332.7429	0.1035
332.9531	0.1073
333.1633	0.1114
333.3735	0.1035
333.5837	0.103
333.7939	0.1075
334.0041	0.104
334.2143	0.0955
334.4244	0.0939
334.6346	0.0926
334.8447	0.1135
335.0548	0.1096
335.2649	0.0979
335.475	0.1008
335.685	0.1068
335.8951	0.1028
336.1051	0.1062
336.3152	0.1082
336.5252	0.1023
336.7352	0.1029
336.9452	0.1016
337.1552	0.1086
337.3652	0.1069
337.5751	0.1103
337.7851	0.0929
337.995	0.1156
338.2049	0.1058
338.4148	0.1028
338.6247	0.111
338.8346	0.1115
339.0445	0.1109
339.2543	0.1098
339.4642	0.1037
339.674	0.1119
339.8838	0.0977
340.0936	0.1138
340.3034	0.1151
340.5132	0.1082
340.7229	0.1177
340.9327	0.1171
341.1424	0.1116
341.3522	0.1165
341.5619	0.1218
341.7716	0.1193
341.9813	0.1155
342.1909	0.1178
342.4006	0.121
342.6102	0.1114
342.8199	0.1208
343.0295	0.1166
343.2391	0.1232
343.4487	0.1215
343.6583	0.1227
343.8679	0.1213
344.0774	0.1231
344.287	0.1217
344.4965	0.118
344.706	0.1298
344.9155	0.1311
345.125	0.1262
345.3345	0.1253
345.544	0.1071
345.7534	0.1208
345.9629	0.1275
346.1723	0.1305
346.3817	0.1328
346.5911	0.1313
346.8005	0.1313
347.0099	0.1175
347.2193	0.1349
347.4286	0.1388
347.638	0.1368
347.8473	0.1316
348.0566	0.1347
348.2659	0.1262
348.4752	0.1374
348.6845	0.1339
348.8937	0.1439
349.103	0.1282
349.3122	0.1363
349.5214	0.1352
349.7306	0.1364
349.9398	0.1342
350.149	0.1335
350.3582	0.138
350.5674	0.1384
350.7765	0.135
350.9856	0.1375
351.1948	0.1388
351.4039	0.1328
351.613	0.1275
351.822	0.1375
352.0311	0.1338
352.2402	0.1408
352.4492	0.1367
352.6582	0.138
352.8672	0.1388
353.0762	0.1508
353.2852	0.1535
353.4942	0.1477
353.7032	0.1484
353.9121	0.1402
354.1211	0.1479
354.33	0.1481
354.5389	0.1491
354.7478	0.1464
354.9567	0.1473
355.1655	0.1595
355.3744	0.1515
355.5833	0.1469
355.7921	0.148
356.0009	0.1514
356.2097	0.1497
356.4185	0.1553
356.6273	0.16
356.8361	0.1489
357.0448	0.1586
357.2536	0.1505
357.4623	0.1508
357.671	0.1639
357.8797	0.172
358.0884	0.1648
358.2971	0.1649
358.5057	0.1589
358.7144	0.1577
358.923	0.1686
359.1316	0.1646
359.3402	0.1704
359.5488	0.17
359.7574	0.1755
359.966	0.1763
360.1746	0.1681
360.3831	0.1851
360.5916	0.1766
360.8002	0.1784
361.0087	0.1766
361.2172	0.1679
361.4256	0.1794
361.6341	0.178
361.8426	0.1888
362.051	0.1731
362.2594	0.1814
362.4678	0.1847
362.6762	0.1857
362.8846	0.1809
363.093	0.1844
363.3014	0.1847
363.5097	0.1874
363.718	0.1852
363.9264	0.1868
364.1347	0.1937
364.343	0.1816
364.5513	0.1901
364.7595	0.1949
364.9678	0.1886
365.176	0.1903
365.3842	0.1888
365.5925	0.1932
365.8007	0.1837
366.0089	0.2022
366.217	0.1987
366.4252	0.2082
366.6333	0.1971
366.8415	0.1936
367.0496	0.2045
367.2577	0.2056
367.4658	0.2075
367.6739	0.2119
367.882	0.1983
368.09	0.2065
368.2981	0.2164
368.5061	0.206
368.7141	0.215
368.9221	0.1997
369.1301	0.2077
369.3381	0.2111
369.5461	0.2205
369.754	0.2192
369.962	0.2142
370.1699	0.2076
370.3778	0.2145
370.5857	0.2159
370.7936	0.2053
371.0015	0.2088
371.2093	0.2013
371.4172	0.2269
371.625	0.2066
371.8328	0.2256
372.0406	0.231
372.2484	0.2204
372.4562	0.2235
372.664	0.2249
372.8717	0.2153
373.0795	0.2237
373.2872	0.2176
373.4949	0.2136
373.7026	0.2179
373.9103	0.2242
374.118	0.229
374.3256	0.2259
374.5333	0.2221
374.7409	0.2208
374.9485	0.23
375.1561	0.2328
375.3637	0.2311
375.5713	0.2292
375.7789	0.2234
375.9864	0.2327
376.194	0.2228
376.4015	0.2414
376.609	0.2305
376.8165	0.2284
377.024	0.2361
377.2315	0.2406
377.4389	0.2365
377.6464	0.2264
377.8538	0.2274
378.0612	0.231
378.2686	0.2237
378.476	0.2389
378.6834	0.2372
378.8908	0.2428
379.0981	0.2596
379.3055	0.2405
379.5128	0.243
379.7201	0.2459
379.9274	0.2411
380.1347	0.2488
380.342	0.2437
380.5492	0.2321
380.7565	0.2476
380.9637	0.2561
381.1709	0.2481
381.3781	0.2383
381.5853	0.2549
381.7925	0.249
381.9997	0.2479
382.2068	0.2518
382.4139	0.2427
382.6211	0.2482
382.8282	0.252
383.0353	0.2558
383.2424	0.2357
383.4494	0.2639
383.6565	0.2433
383.8635	0.2609
384.0706	0.2544
384.2776	0.2506
384.4846	0.2504
384.6916	0.254
384.8986	0.2571
385.1055	0.2645
385.3125	0.2711
385.5194	0.2566
385.7263	0.2586
385.9333	0.257
386.1402	0.2512
386.347	0.252
386.5539	0.2596
386.7608	0.2549
386.9676	0.2518
387.1744	0.2572
387.3813	0.2455
387.5881	0.2552
387.7948	0.2499
388.0016	0.245
388.2084	0.262
388.4151	0.2517
388.6219	0.2554
388.8286	0.2567
389.0353	0.2334
389.242	0.2457
389.4487	0.2454
389.6553	0.2455
389.862	0.2442
390.0686	0.2397
390.2753	0.2428
390.4819	0.2431
390.6885	0.2501
390.8951	0.2424
391.1016	0.246
391.3082	0.2403
391.5147	0.2416
391.7213	0.237
391.9278	0.2391
392.1343	0.2446
392.3408	0.235
392.5473	0.2341
392.7537	0.2467
392.9602	0.2227
393.1666	0.23
393.373	0.2363
393.5794	0.2203
393.7858	0.2236
393.9922	0.2147
394.1986	0.2237
394.4049	0.2368
394.6113	0.23
394.8176	0.2151
395.0239	0.2206
395.2302	0.2187
395.4365	0.2133
395.6428	0.2106
395.8491	0.2217
396.0553	0.2186
396.2615	0.2167
396.4678	0.2285
396.674	0.215
396.8802	0.2136
397.0863	0.2149
397.2925	0.2162
397.4987	0.2097
397.7048	0.213
397.9109	0.2171
398.117	0.2125
398.3231	0.2136
398.5292	0.2049
398.7353	0.2048
398.9413	0.2199
399.1474	0.2097
399.3534	0.2095
399.5594	0.209
399.7654	0.2028
399.9714	0.2043
400.1774	0.2187
400.3833	0.2101
400.5893	0.2043
400.7952	0.2075
401.0011	0.2088
401.207	0.2111
401.4129	0.1941
401.6188	0.204
401.8247	0.2033
402.0305	0.2102
402.2364	0.2157
402.4422	0.202
402.648	0.2268
402.8538	0.2134
403.0596	0.1985
403.2654	0.2077
403.4711	0.1982
403.6768	0.2209
403.8826	0.2065
404.0883	0.2044
404.294	0.2096
404.4997	0.2192
404.7054	0.2059
404.911	0.2102
405.1167	0.218
405.3223	0.213
405.5279	0.2077
405.7335	0.2158
405.9391	0.2101
406.1447	0.2015
406.3502	0.2028
406.5558	0.2073
406.7613	0.2067
406.9668	0.2078
407.1724	0.2015
407.3778	0.2123
407.5833	0.2072
407.7888	0.2186
407.9942	0.214
408.1997	0.2245
408.4051	0.1982
408.6105	0.21
408.8159	0.2182
409.0213	0.2065
409.2267	0.2068
409.432	0.2067
409.6374	0.2071
409.8427	0.2197
410.048	0.2054
410.2533	0.2111
410.4586	0.2142
410.6639	0.197
410.8691	0.2135
411.0744	0.2115
411.2796	0.214
411.4848	0.2034
411.69	0.2154
411.8952	0.2033
412.1004	0.1947
412.3056	0.2066
412.5107	0.2182
412.7158	0.1962
412.921	0.2085
413.1261	0.1943
413.3312	0.211
413.5362	0.2102
413.7413	0.2092
413.9464	0.2048
414.1514	0.1962
414.3564	0.2039
414.5614	0.2132
414.7664	0.2038
414.9714	0.1936
415.1764	0.198
415.3813	0.213
415.5863	0.2023
415.7912	0.211
415.9961	0.2083
416.201	0.2001
416.4059	0.1927
416.6108	0.1974
416.8156	0.1984
417.0205	0.2084
417.2253	0.2075
417.4301	0.2069
417.6349	0.2061
417.8397	0.1976
418.0445	0.1977
418.2492	0.2008
418.454	0.1977
418.6587	0.2093
418.8634	0.1929
419.0681	0.1968
419.2728	0.1981
419.4775	0.1924
419.6822	0.1925
419.8868	0.188
420.0915	0.1946
420.2961	0.1927
420.5007	0.198
420.7053	0.1877
420.9099	0.1799
421.1144	0.1925
421.319	0.1866
421.5235	0.1899
421.728	0.1845
421.9325	0.1803
422.137	0.1752
422.3415	0.195
422.546	0.1892
422.7504	0.1826
422.9549	0.1905
423.1593	0.1826
423.3637	0.1857
423.5681	0.1927
423.7725	0.1827
423.9769	0.1832
424.1812	0.1753
424.3856	0.1782
424.5899	0.1777
424.7942	0.1677
424.9985	0.1713
425.2028	0.1604
425.4071	0.1727
425.6113	0.1708
425.8156	0.1794
426.0198	0.1772
426.224	0.1563
426.4282	0.1614
426.6324	0.1652
426.8366	0.1603
427.0407	0.1622
427.2449	0.1545
427.449	0.1645
427.6531	0.1659
427.8572	0.1588
428.0613	0.1476
428.2654	0.1645
428.4694	0.1619
428.6735	0.1644
428.8775	0.1516
429.0815	0.1516
429.2855	0.1543
429.4895	0.1499
429.6935	0.1415
429.8975	0.1498
430.1014	0.1417
430.3053	0.1401
430.5093	0.1518
430.7132	0.1386
430.9171	0.1446
431.1209	0.1478
431.3248	0.1347
431.5286	0.1415
431.7325	0.1374
431.9363	0.1366
432.1401	0.1412
432.3439	0.1238
432.5477	0.1358
432.7514	0.1323
432.9552	0.1254
433.1589	0.1302
433.3627	0.1162
433.5664	0.1197
433.7701	0.1221
433.9737	0.1111
434.1774	0.1191
434.3811	0.1054
434.5847	0.1097
434.7883	0.113
434.9919	0.1153
435.1955	0.094
435.3991	0.1091
435.6027	0.1103
435.8062	0.1028
436.0098	0.1083
436.2133	0.101
436.4168	0.106
436.6203	0.1033
436.8238	0.0999
437.0272	0.0949
437.2307	0.1028
437.4341	0.0928
437.6375	0.0986
437.841	0.0856
438.0443	0.0811
438.2477	0.0915
438.4511	0.0944
438.6545	0.0789
438.8578	0.0899
439.0611	0.0743
439.2644	0.0968
439.4677	0.0793
439.671	0.0716
439.8743	0.0912
440.0775	0.0667
440.2808	0.069
440.484	0.0735
440.6872	0.0684
440.8904	0.0721
441.0936	0.0621
441.2967	0.0662
441.4999	0.0652
441.703	0.0548
441.9062	0.0672
442.1093	0.0597
442.3124	0.0731
442.5155	0.0569
442.7185	0.0441
442.9216	0.0567
443.1246	0.0533
443.3276	0.0591
443.5307	0.0465
443.7337	0.0564
443.9366	0.0521
444.1396	0.0413
444.3426	0.0474
444.5455	0.0435
444.7484	0.0511
444.9513	0.0474
445.1542	0.0498
445.3571	0.0502
445.56	0.0453
445.7628	0.038
445.9657	0.0444
446.1685	0.0374
446.3713	0.0348
446.5741	0.0403
446.7769	0.0441
446.9797	0.0395
447.1824	0.0345
447.3852	0.0391
447.5879	0.038
447.7906	0.0398
447.9933	0.0325
448.196	0.0407
448.3986	0.0346
448.6013	0.0302
448.8039	0.0275
449.0066	0.0252
449.2092	0.0265
449.4118	0.0227
449.6143	0.0264
449.8169	0.0139
450.0195	0.0184
450.222	0.017
450.4245	0.0233
450.627	0.0271
450.8295	0.0162
451.032	0.0268
451.2345	0.0178
451.4369	0.0267
451.6394	0.0103
451.8418	0.0154
452.0442	0.0153
452.2466	0.0218
452.449	0.0237
452.6513	0.0214
452.8537	0.0219
453.056	0.0177
453.2583	0.0099
453.4607	0.0213
453.663	0.0215
453.8652	0.0133
454.0675	0.01
454.2697	0.022
454.472	0.0198
454.6742	0.0208
454.8764	0.0168
455.0786	0.0155
455.2808	0.0233
455.4829	0.0087
455.6851	0.0101
455.8872	0.0012
456.0893	0.0108
456.2915	0.0011
456.4935	0.0055
456.6956	0.0181
456.8977	0.0061
457.0997	0.0061
457.3018	0.0107
457.5038	0.0138
457.7058	0.0038
457.9078	0.0013
458.1098	0.0075
458.3117	0.0118
458.5137	0.0098
458.7156	0.0077
458.9175	0.0043
459.1194	0.009
459.3213	0.0078
459.5232	0.0079
459.725	-0.0051
459.9269	-0.0003
460.1287	0.0042
460.3305	0.0001
460.5323	0.015
460.7341	0.0056
460.9359	0.0028
461.1376	-0.0006
461.3394	0.0033
461.5411	0.0095
461.7428	0.0001
461.9445	0.0016
462.1462	0.0008
462.3479	0.0069
462.5495	0.0026
462.7512	-0.007
462.9528	-0.0011
463.1544	0.0015
463.356	-0.0015
463.5576	-0.0103
463.7592	-0.0003
463.9607	0.0056
464.1623	-0.0039
464.3638	-0.0039
464.5653	0.0026
464.7668	0.0057
464.9683	0.0073
465.1697	0.0024
465.3712	0.0099
465.5726	-0.0041
465.7741	-0.002
465.9755	-0.0016
466.1769	-0.015
466.3782	-0.012
466.5796	0.0053
466.7809	0.0075
466.9823	-0.0082
467.1836	0.0041
467.3849	0.0049
467.5862	-0.0098
467.7875	-0.0045
467.9887	0.0006
468.19	-0.0058
468.3912	0.0045
468.5924	-0.0052
468.7936	-0.0145
468.9948	0.0046
469.196	-0.0082
469.3972	0.0067
469.5983	0.0053
469.7994	-0.0043
470.0006	-0.0131
470.2017	0.0026
470.4027	-0.0053
470.6038	-0.0056
470.8049	-0.0066
471.0059	-0.0038
471.2069	0.0082
471.408	0.0004
471.6089	0.0031
471.8099	-0.001
472.0109	-0.0083
472.2119	-0.0144
472.4128	-0.0129
472.6137	-0.0111
472.8146	-0.0048
473.0155	-0.0096
473.2164	-0.0132
473.4173	-0.0076
473.6181	0.0084
473.819	-0.0047
474.0198	0.0025
474.2206	0.0008
474.4214	-0.0073
474.6222	-0.0033
474.8229	-0.0118
475.0237	0.0002
475.2244	-0.0007
475.4251	-0.0058
475.6258	-0.0029
475.8265	-0.002
476.0272	0.0002
476.2278	-0.0026
476.4285	0.0056
476.6291	-0.0063
476.8297	-0.0082
477.0303	-0.0053
477.2309	-0.0018
477.4315	0.0007
477.632	-0.0071
477.8326	0.001
478.0331	-0.0095
478.2336	0.0062
478.4341	-0.0089
478.6346	-0.0088
478.8351	-0.0014
479.0355	-0.0094
479.236	-0.0051
479.4364	-0.0076
479.6368	0.0089
479.8372	-0.0024
480.0376	-0.0048
480.2379	-0.0134
480.4383	-0.0097
480.6386	-0.0107
480.8389	-0.0128
481.0392	-0.0082
481.2395	-0.012
481.4398	-0.0045
481.6401	-0.0157
481.8403	0.0027
482.0405	-0.0111
482.2408	0.002
482.441	-0.0078
482.6411	-0.0014
482.8413	-0.0059
483.0415	-0.0023
483.2416	-0.0004
483.4417	-0.0105
483.6419	0.0023
483.8419	-0.0151
484.042	-0.0042
484.2421	-0.0041
484.4422	-0.0043
484.6422	-0.0007
484.8422	-0.0063
485.0422	-0.0089
485.2422	-0.0067
485.4422	-0.0074
485.6422	-0.0032
485.8421	-0.0086
486.042	-0.0026
486.242	-0.0062
486.4419	-0.0045
486.6417	-0.0051
486.8416	-0.0049
487.0415	-0.0114
487.2413	-0.0021
487.4411	-0.0006
487.641	-0.0011
487.8408	-0.0066
488.0405	-0.0037
488.2403	-0.0039
488.4401	-0.0104
488.6398	-0.0037
488.8395	-0.0085
489.0392	-0.0116
489.2389	-0.0102
489.4386	-0.005
489.6383	-0.0057
489.8379	-0.0036
490.0376	-0.0029
490.2372	-0.0009
490.4368	-0.0159
490.6364	-0.002
490.836	-0.0029
491.0355	-0.0064
491.2351	-0.0109
491.4346	-0.0115
491.6341	-0.0031
491.8336	-0.0106
492.0331	-0.0109
492.2326	-0.0092
492.432	-0.0035
492.6315	-0.0078
492.8309	-0.0067
493.0303	-0.0038
493.2297	-0.0068
493.4291	-0.0075
493.6284	0.0016
493.8278	-0.0072
494.0271	0.0014
494.2264	-0.0059
494.4257	-0.0029
494.625	-0.0027
494.8243	-0.0096
495.0236	-0.0072
495.2228	-0.0067
495.422	-0.0092
495.6213	-0.0046
495.8205	0.002
496.0196	-0.0106
496.2188	-0.0033
496.418	-0.005
496.6171	0.0029
496.8162	-0.0039
497.0153	-0.0027
497.2144	-0.0073
497.4135	-0.0048
497.6126	-0.0064
497.8116	-0.0007
498.0107	-0.0038
498.2097	-0.0069
498.4087	-0.0022
498.6077	-0.0052
498.8067	-0.0099
499.0056	-0.0027
499.2046	-0.0007
499.4035	-0.0134
499.6024	-0.0076
499.8013	-0.0013
500.0002	-0.0025
500.199	-0.0032
500.3979	-0
500.5967	-0.0077
500.7956	-0.0154
500.9944	-0.0071
501.1932	-0.0138
501.3919	-0.008
501.5907	-0.0052
501.7895	-0.0023
501.9882	-0.013
502.1869	-0.0083
502.3856	-0.0032
502.5843	-0.0084
502.783	-0.0056
502.9816	-0.0119
503.1803	-0.0066
503.3789	-0.0058
503.5775	-0.0057
503.7761	-0.0044
503.9747	-0.0072
504.1732	-0.0002
504.3718	-0.0038
504.5703	-0.0038
504.7689	-0.0018
504.9674	-0
505.1658	-0.0071
505.3643	-0.0006
505.5628	-0.0017
505.7612	-0.0057
505.9597	-0.0042
506.1581	-0.0041
506.3565	-0.0106
506.5549	-0.0034
506.7532	-0.0046
506.9516	-0.001
507.1499	0.0004
507.3482	-0.0021
507.5465	-0.0056
507.7448	-0.0024
507.9431	-0.0043
508.1414	-0.0012
508.3396	-0.0043
508.5379	-0.0086
508.7361	-0.0048
508.9343	-0.0055
509.1325	-0.002
509.3306	0.0022
509.5288	0.0006
509.7269	-0.0088
509.9251	-0.0016
510.1232	-0.0006
510.3213	-0.0062
510.5193	-0.0015
510.7174	-0.002
510.9154	-0.0078
511.1135	-0.0097
511.3115	-0.0074
511.5095	-0.0086
511.7075	0.0003
511.9055	-0.0104
512.1034	-0.0061
512.3014	-0.0034
512.4993	-0.0037
512.6972	-0.0037
512.8951	-0.0072
513.093	-0.0109
513.2908	0.0032
513.4887	-0.0089
513.6865	-0.004
513.8844	-0.0015
514.0822	0.0017
514.2799	-0.0076
514.4777	-0.0018
514.6755	-0.0015
514.8732	-0.0061
515.0709	-0.0067
515.2687	-0.0021
515.4664	-0.0108
515.664	-0.0105
515.8617	-0.0034
516.0594	-0.0068
516.257	-0.0018
516.4546	-0.019
516.6522	-0.0019
516.8498	-0.0103
517.0474	0.0002
517.2449	-0.0101
517.4425	-0.0022
517.64	-0.0047
517.8375	-0.0055
518.035	-0.0082
518.2325	-0.0057
518.43	0.0024
518.6274	-0.0128
518.8249	-0.0078
519.0223	-0.0118
519.2197	-0.0081
519.4171	-0.0052
519.6145	-0.0075
519.8118	-0.0139
520.0092	-0.0041
520.2065	-0.0132
520.4038	-0.0043
520.6011	-0.0076
520.7984	-0.0114
520.9956	-0.0061
521.1929	0.0008
521.3901	-0.0125
521.5874	-0.011
521.7846	0.0013
521.9818	-0.0066
522.1789	-0.0042
522.3761	-0.0045
522.5732	-0.0077
522.7704	-0.0045
522.9675	-0.0063
523.1646	-0.001
523.3617	-0.0094
523.5587	-0.0039
523.7558	-0.0014
523.9528	-0.0045
524.1498	-0.0089
524.3468	-0.0067
524.5438	-0.0027
524.7408	-0.0133
524.9378	-0.0062
525.1347	0.001
525.3316	-0.003
525.5285	-0.0093
525.7254	-0.0093
525.9223	-0.0046
526.1192	-0.0045
526.316	-0.0061
526.5129	-0.0021
526.7097	-0.0113
526.9065	-0.0041
527.1033	-0.0005
527.3	-0.0064
527.4968	-0.0147
527.6935	-0.0031
527.8903	-0.0055
528.087	-0.0101
528.2837	-0.0064
528.4804	-0.0074
528.677	0.0003
528.8737	-0.0105
529.0703	-0.0035
529.2669	0.0068
529.4635	-0.0089
529.6601	-0.0085
529.8567	-0.0054
530.0532	0.0005
530.2498	0.0014
530.4463	-0.0046
530.6428	0.0032
530.8393	-0.0038
531.0358	-0.0108
531.2322	-0.0094
531.4287	-0.0138
531.6251	-0.006
531.8215	-0.0046
532.0179	-0.0023
532.2143	-0.0035
532.4107	0.0019
532.607	-0.0028
532.8034	-0.0094
532.9997	-0.002
533.196	-0.0093
533.3923	-0.001
533.5886	0.0001
533.7848	-0.0027
533.9811	-0.0022
534.1773	-0.0137
534.3735	-0.0021
534.5697	-0.0016
534.7659	-0.0036
534.9621	0.0033
535.1582	-0.003
535.3544	-0.0075
535.5505	-0.0054
535.7466	-0.0036
535.9427	-0.0006
536.1387	-0.0025
536.3348	-0.0036
536.5308	-0.0001
536.7269	-0.0056
536.9229	-0.0082
537.1189	-0.0056
537.3148	-0.0018
537.5108	0.0029
537.7068	-0.0065
537.9027	-0.0016
538.0986	0.0023
538.2945	-0.0041
538.4904	-0.015
538.6863	-0.0121
538.8821	-0.0039
539.078	-0.0116
539.2738	-0.0161
539.4696	-0.0065
539.6654	-0.0063
539.8611	-0.0014
540.0569	-0.0024
540.2526	-0.004
540.4484	0.0053
540.6441	-0.0051
540.8398	-0.0064
541.0355	-0.0015
541.2311	-0.0032
541.4268	-0.0028
541.6224	0.0018
541.818	-0.0007
542.0136	-0.0068
542.2092	-0.0041
542.4048	-0.0059
542.6003	-0.0042
542.7959	-0.0025
542.9914	-0.0079
543.1869	-0.0081
543.3824	-0.0053
543.5779	-0.0153
543.7734	-0.0076
543.9688	-0.0083
544.1642	-0.0098
544.3596	-0.0071
544.555	-0.0077
544.7504	-0.0088
544.9458	-0.0063
545.1411	0.0073
545.3365	-0.0064
545.5318	-0.0005
545.7271	-0.0001
545.9224	-0.0009
546.1177	-0.0066
546.3129	-0.0039
546.5081	-0.0035
546.7034	-0.0064
546.8986	-0.0082
547.0938	-0.0057
547.289	-0.0002
547.4841	-0.009
547.6793	-0.004
547.8744	-0.0021
548.0695	-0.004
548.2646	-0.0108
548.4597	0.002
548.6548	-0.0035
548.8498	-0.0078
549.0448	-0.0005
549.2399	-0.0035
549.4349	0.0018
549.6298	-0.0065
549.8248	-0.0073
550.0198	-0.0052
550.2147	0.0019
550.4096	-0.0066
550.6045	-0.0037
550.7994	0.004
550.9943	-0.0023
551.1892	0.0007
551.384	-0.0069
551.5788	-0.005
551.7737	-0.0035
551.9685	-0.006
552.1632	-0.0059
552.358	-0.0106
552.5528	-0.0112
552.7475	-0.0116
552.9422	-0.0103
553.1369	-0.006
553.3316	-0.0049
553.5263	-0.0015
553.7209	-0.0075
553.9156	-0.0046
554.1102	-0.0105
554.3048	-0.0127
554.4994	-0.0046
554.694	-0.0035
554.8885	-0.0078
555.0831	-0.0031
555.2776	-0.0047
555.4721	-0.0059
555.6666	-0.0017
555.8611	-0.0073
556.0555	-0.0113
556.25	0
556.4444	-0.0045
556.6388	-0.0071
556.8332	-0.0027
557.0276	-0.0042
557.222	-0.0093
557.4163	0.0013
557.6107	-0.0071
557.805	-0.0025
557.9993	-0.0037
558.1936	-0.0119
558.3879	0.001
558.5821	-0.0077
558.7764	-0.0126
558.9706	-0.0044
559.1648	-0.0032
559.359	-0.0142
559.5532	-0.0096
559.7473	-0.005
559.9415	-0.0059
560.1356	-0.0078
560.3297	-0.0101
560.5238	-0.007
560.7179	-0.0094
560.9119	-0.0006
561.106	-0.0016
561.3	-0.0018
561.494	-0.0123
561.688	-0.0038
561.882	-0.0012
562.076	-0.0063
562.2699	-0.0064
562.4639	-0.0023
562.6578	-0.0036
562.8517	-0.0064
563.0456	-0.0036
563.2395	-0.0037
563.4333	-0.0054
563.6272	-0.0067
563.821	-0.0067
564.0148	0.004
564.2086	-0.0052
564.4024	-0.0029
564.5961	-0.0033
564.7899	-0.002
564.9836	0.0031
565.1773	-0.0043
565.371	0.0019
565.5647	-0.006
565.7584	0.0063
565.952	0.0044
566.1456	-0.0005
566.3393	-0.0016
566.5329	0.003
566.7264	0.0022
566.92	0.0003
567.1136	-0.0008
567.3071	0.0003
567.5006	0.0032
567.6941	0.001
567.8876	-0.0015
568.0811	-0.0015
568.2745	-0.0103
568.468	-0.0079
568.6614	-0.0079
568.8548	-0.0102
569.0482	-0.0029
569.2416	-0.0027
569.4349	-0.0008
569.6283	-0.0072
569.8216	-0.0038
570.0149	-0.0048
570.2082	-0.0006
570.4015	-0.0005
570.5947	-0.0036
570.788	-0.0074
570.9812	-0.0039
571.1744	-0.0066
571.3676	-0.0068
571.5608	-0.0008
571.754	-0.0081
571.9471	-0.0017
572.1402	-0.001
572.3333	-0.0021
572.5264	-0.0043
572.7195	-0.0011
572.9126	0.0022
573.1057	-0.0055
573.2987	-0.0001
573.4917	-0.006
573.6847	-0.0048
573.8777	-0.0025
574.0707	-0.003
574.2636	-0.0052
574.4566	-0.0057
574.6495	-0.0031
574.8424	-0.0056
575.0353	-0.0037
575.2281	-0.0043
575.421	-0.0088
575.6138	-0.0025
575.8067	-0.0039
575.9995	-0.0009
576.1923	-0.0039
576.385	-0.0077
576.5778	-0.0012
576.7706	0.0015
576.9633	-0.0024
577.156	0.0018
577.3487	0.0008
577.5414	0.0014
577.734	0.0011
577.9267	0.0014
578.1193	-0.0073
578.3119	-0.0004
578.5045	-0.005
578.6971	0.0018
578.8897	-0.0089
579.0822	-0.0032
579.2747	0.0067
579.4673	-0.0048
579.6598	-0.003
579.8522	-0.0002
580.0447	-0.0024
580.2372	0.0027
580.4296	0.0012
580.622	0.0031
580.8144	-0.0036
581.0068	-0.0034
581.1992	0.0049
581.3915	-0.0004
581.5839	-0.0022
581.7762	-0.0013
581.9685	-0.0026
582.1608	-0.0036
582.353	-0.003
582.5453	-0.0037
582.7375	-0.0004
582.9298	-0.0058
583.122	-0.0021
583.3142	-0.0021
583.5063	-0.006
583.6985	-0.0057
583.8906	-0.0054
584.0827	-0.0057
584.2749	-0.0062
584.4669	-0.0075
584.659	-0.0045
584.8511	-0.0053
585.0431	-0.0043
585.2352	-0.0046
585.4272	-0.0064
585.6192	-0.006
585.8111	-0.0048
586.0031	-0.0024
586.195	-0.0061
586.387	-0.0042
586.5789	-0.0025
586.7708	-0.0077
586.9627	0.0012
587.1545	-0.0086
587.3464	-0.0078
587.5382	-0.0085
587.73	-0.0061
587.9218	-0.0041
588.1136	-0.0029
588.3053	-0.0021
588.4971	-0.0063
588.6888	-0.0076
588.8805	-0.0002
589.0722	-0.0025
589.2639	-0.0047
589.4556	-0.0027
589.6472	-0.0026
589.8389	-0.0067
590.0305	-0.0062
590.2221	-0.0047
590.4137	-0.0089
590.6052	-0.0033
590.7968	0.0013
590.9883	0.001
591.1798	-0.0099
591.3713	0.0009
591.5628	-0.0037
591.7543	-0.0004
591.9458	-0.0042
592.1372	-0.0012
592.3286	-0.0014
592.52	-0.0069
592.7114	0.0066
592.9028	-0.004
593.0941	-0.0037
593.2855	-0.0025
593.4768	0.0008
593.6681	-0.0008
593.8594	0.0012
594.0506	-0.0044
594.2419	0.0026
594.4331	-0.0028
594.6244	-0.0024
594.8156	-0.008
595.0067	-0.0014
595.1979	-0.0041
595.3891	-0.0057
595.5802	-0.0098
595.7713	-0.0033
595.9624	-0.0011
596.1535	0.0022
596.3446	-0.0018
596.5357	0.0015
596.7267	-0.0012
596.9177	0.0014
597.1087	0
597.2997	0.0022
597.4907	-0.0026
597.6817	0.0002
597.8726	-0.0024
598.0635	-0.0026
598.2544	-0.0043
598.4453	-0.0063
598.6362	-0.0037
598.827	-0.0029
599.0179	-0.0046
599.2087	-0.0107
599.3995	-0.0039
599.5903	0.0012
599.7811	-0.0059
599.9718	-0.0005
600.1626	-0.0001
600.3533	-0.0049
600.544	-0.0029
600.7347	0.0009
600.9254	-0.0045
601.116	-0.0078
601.3067	-0.0036
601.4973	-0.0051
601.6879	-0.0038
601.8785	-0.0049
602.0691	-0.0018
602.2596	-0.004
602.4502	-0.0052
602.6407	-0.0003
602.8312	-0.0037
603.0217	-0.0048
603.2122	-0.0016
603.4027	-0.0031
603.5931	-0.0086
603.7835	-0.0009
603.9739	0.0002
604.1643	-0.001
604.3547	-0.0015
604.5451	-0.0053
604.7354	0.0013
604.9257	-0.0019
605.116	-0.0019
605.3063	-0.0022
605.4966	-0.0021
605.6869	-0.0045
605.8771	-0.0021
606.0673	-0.0029
606.2575	-0.0027
606.4477	-0.0086
606.6379	-0.0085
606.8281	-0.0099
607.0182	-0.0106
607.2083	-0.004
607.3985	-0.0073
607.5885	-0.0015
607.7786	-0.0055
607.9687	-0.0037
608.1587	-0.0037
608.3488	-0.0009
608.5388	0.0059
608.7288	-0.0064
608.9187	-0.0005
609.1087	-0.0071
609.2986	-0.001
609.4886	-0.004
609.6785	-0.001
609.8684	-0.0058
610.0582	-0.0015
610.2481	-0.0043
610.4379	-0.001
610.6278	-0.0011
610.8176	-0.0009
611.0074	-0.0018
611.1971	0.0001
611.3869	-0.0009
611.5766	-0.0025
611.7664	0.0006
611.9561	-0.0022
612.1458	0.0009
612.3354	-0.0063
612.5251	-0.0067
612.7147	-0.0055
612.9044	-0.0057
613.094	-0.0023
613.2836	-0.0066
613.4731	-0.0069
613.6627	-0.0086
613.8522	0.0035
614.0417	-0.0039
614.2313	-0.0037
614.4207	-0.0035
614.6102	-0.0011
614.7997	-0.0056
614.9891	-0.0002
615.1785	-0.003
615.3679	-0.001
615.5573	-0.0002
615.7467	-0.0019
615.9361	-0
616.1254	-0.0055
616.3147	-0.0011
616.504	-0.0023
616.6933	-0.0051
616.8826	-0.0088
617.0718	-0.0057
617.2611	0.0011
617.4503	0.0025
617.6395	-0.0017
617.8287	0.0008
618.0179	0.0073
618.207	-0.0045
618.3961	-0.0049
618.5853	-0.0007
618.7744	-0.0032
618.9634	0.0047
619.1525	-0.0051
619.3416	-0.0068
619.5306	0.0011
619.7196	-0.0018
619.9086	-0.0035
620.0976	-0.0004
620.2866	0.0032
620.4755	-0.0054
620.6645	-0.0025
620.8534	0.0005
621.0423	-0.0098
621.2312	-0.0076
621.42	-0.003
621.6089	-0.0012
621.7977	-0.0015
621.9865	-0.0015
622.1753	0.0012
622.3641	-0.0004
622.5529	-0.001
622.7416	-0.0021
622.9303	0.0055
623.1191	-0.0038
623.3078	-0.0017
623.4964	-0.0028
623.6851	0.0012
623.8737	0.0002
624.0624	0.0022
624.251	-0.0035
624.4396	0.0017
624.6282	-0.0012
624.8167	-0.0004
625.0053	0.0013
625.1938	0.0024
625.3823	-0.0005
625.5708	0.0007
625.7593	-0.0029
625.9477	-0.0068
626.1362	-0.0004
626.3246	-0.0005
626.513	-0.0076
626.7014	-0.0018
626.8898	-0.0051
627.0781	0.0015
627.2665	-0.0015
627.4548	-0.0108
627.6431	-0.0025
627.8314	-0.0057
628.0197	-0.0029
628.2079	-0.0047
628.3962	-0.0006
628.5844	0.0036
628.7726	0.0013
628.9608	0.0021
629.1489	0.0013
629.3371	-0.0001
629.5252	0.0041
629.7134	0.0023
629.9015	-0.0064
630.0895	0.0018
630.2776	-0.0035
630.4657	-0.0007
630.6537	-0.0026
630.8417	0.0013
631.0297	-0.0035
631.2177	0.0037
631.4057	0.0018
631.5936	0.0021
631.7815	-0.0033
631.9695	0.0023
632.1574	-0.0048
632.3452	-0.0099
632.5331	-0.0076
632.7209	-0.0074
632.9088	-0.0044
633.0966	-0.0048
633.2844	-0.0037
633.4722	-0.0025
633.6599	-0.0035
633.8477	-0.001
634.0354	-0.0072
634.2231	-0.0043
634.4108	-0.0034
634.5985	-0.0021
634.7861	-0.0035
634.9738	-0.0039
635.1614	-0.0043
635.349	-0.0074
635.5366	-0.0038
635.7242	-0.003
635.9117	0.0023
636.0993	-0.0025
636.2868	-0.0062
636.4743	0.0015
636.6618	-0.0078
636.8492	-0.0001
637.0367	-0.0031
637.2241	-0.0047
637.4115	-0.0026
637.5989	-0.001
637.7863	0.0032
637.9737	-0.0066
638.161	-0.0009
638.3484	-0.0011
638.5357	-0.0003
638.723	-0.0017
638.9103	0.0001
639.0975	0.0016
639.2848	-0.0035
639.472	0.0032
639.6592	0.0044
639.8464	0.0025
640.0336	-0.0014
640.2208	0.001
640.4079	-0.0036
640.595	0.0021
640.7821	0.0015
640.9692	0.0022
641.1563	0.0049
641.3434	0.0023
641.5304	-0.0017
641.7174	0.001
641.9044	0.0058
642.0914	0.0002
642.2784	0.0056
642.4653	0.001
642.6523	-0.003
642.8392	0.005
643.0261	0.0036
643.213	0.0008
643.3999	0.0009
643.5867	-0.0005
643.7735	0.0025
643.9604	-0.0022
644.1472	-0.0005
644.3339	0.0036
644.5207	-0.0043
644.7075	-0.0049
644.8942	-0.0022
645.0809	-0.0016
645.2676	-0.0034
645.4543	0.001
645.6409	-0.0016
645.8276	-0.0026
646.0142	-0.0011
646.2008	-0.004
646.3874	-0.0032
646.574	-0.0035
646.7605	-0.0012
646.9471	-0.008
647.1336	-0.0029
647.3201	-0.0027
647.5066	-0.0012
647.6931	-0.0036
647.8795	-0.0072
648.0659	-0.0042
648.2524	-0.0047
648.4388	-0.0001
648.6252	-0.0031
648.8115	-0.0079
648.9979	-0.0085
649.1842	-0.0106
649.3705	-0.0054
649.5568	-0.005
649.7431	-0.0014
649.9294	-0.0035
650.1156	-0.0035
650.3018	-0.006
650.488	-0.0036
650.6742	-0.0055
650.8604	-0.0009
651.0466	0.0032
651.2327	-0.0014
651.4188	0.0017
651.6049	-0.0019
651.791	0.0016
651.9771	0.0005
652.1632	0.0008
652.3492	0.003
652.5352	-0.0021
652.7212	-0.0036
652.9072	0.0061
653.0932	0.0017
653.2791	-0.0007
653.465	-0.0023
653.651	-0.0042
653.8369	-0.0059
654.0227	0.0014
654.2086	-0.0025
654.3944	-0.0105
654.5803	-0.0095
654.7661	-0.0016
654.9519	-0.0042
655.1377	-0.0024
655.3234	0
655.5092	0
655.6949	0
655.8806	0
656.0663	0
656.2519	0
656.4376	-0.0047
656.6232	-0.0044
656.8088	-0.0048
656.9945	-0.0015
657.18	0.0002
657.3656	-0.0028
657.5511	-0.007
657.7367	-0.0054
657.9222	-0.0016
658.1077	-0.0013
658.2932	-0.0064
658.4786	0.0001
658.6641	-0.0028
658.8495	-0.0064
659.0349	-0.0012
659.2203	-0.0035
659.4057	-0.0035
659.591	-0.0065
659.7764	-0.004
659.9617	-0.0071
660.147	-0.0049
660.3323	-0.0046
660.5176	-0.0053
660.7028	-0.0053
660.888	-0.0025
661.0733	-0.0013
661.2585	-0.0099
661.4436	0.0002
661.6288	-0.0019
661.8139	0.0009
661.9991	0.0028
662.1842	-0.0019
662.3693	0.0007
662.5544	-0.002
662.7394	-0.0009
662.9245	0.0034
663.1095	-0.0004
663.2945	-0.0015
663.4795	-0.0029
663.6644	-0.0059
663.8494	-0.0049
664.0343	-0.003
664.2193	-0.0063
664.4042	-0.0103
664.589	-0.0045
664.7739	-0.0072
664.9587	-0
665.1436	0.0023
665.3284	-0.0032
665.5132	0.0001
665.698	0.0038
665.8827	0.0012
666.0675	-0.0072
666.2522	-0.0055
666.4369	-0.0067
666.6216	-0.0133
666.8063	-0.0083
666.9909	-0.0093
667.1756	-0.0066
667.3602	-0.0107
667.5448	-0.0138
667.7294	-0.0031
667.9139	-0.0069
668.0985	-0.01
668.283	-0.0043
668.4675	-0.012
668.652	-0.0148
668.8365	-0.0075
669.0209	-0.0096
669.2054	-0.0096
669.3898	-0.0028
669.5742	-0.0085
669.7586	-0.0046
669.943	-0.0044
670.1273	-0.0084
670.3117	-0.006
670.496	-0.0092
670.6803	-0.0004
670.8646	-0.0053
671.0488	-0.0011
671.2331	-0.0006
671.4173	0.001
671.6015	0.0001
671.7857	-0.0065
671.9699	-0.0044
672.1541	-0.0017
672.3382	-0.0057
672.5223	-0.0069
672.7064	-0.0131
672.8905	-0.0131
673.0746	-0.0125
673.2587	-0.0139
673.4427	-0.0126
673.6267	-0.015
673.8107	-0.0096
673.9947	-0.0068
674.1787	-0.0074
674.3626	-0.007
674.5465	-0.0056
674.7304	-0.0028
674.9143	-0.0028
675.0982	-0.002
675.2821	0.001
675.4659	-0.0054
675.6497	0.0006
675.8335	-0.0034
676.0173	-0.0076
676.2011	-0.0051
676.3849	-0.0044
676.5686	0.0001
676.7523	0.0008
676.936	0.0011
677.1197	-0.0065
677.3034	-0.0051
677.487	-0.0073
677.6706	-0.0037
677.8542	-0.0044
678.0378	-0.0016
678.2214	-0.0094
678.405	-0.0007
678.5885	-0.0083
678.772	-0.0051
678.9555	-0.0027
679.139	-0.0033
679.3225	-0.0058
679.5059	-0.0057
679.6894	-0.0052
679.8728	-0.0013
680.0562	-0.0027
680.2395	-0.0074
680.4229	0.0016
680.6062	-0.0018
680.7896	0.0024
680.9729	-0.0014
681.1562	0.0039
681.3394	-0.0008
681.5227	-0.0048
681.7059	-0.0033
681.8891	-0.0053
682.0723	-0.0065
682.2555	-0.004
682.4387	-0.0028
682.6218	-0.0075
682.805	-0.006
682.9881	-0.006
683.1712	-0.0006
683.3542	-0.0037
683.5373	-0.0069
683.7203	-0.0037
683.9034	-0.0009
684.0864	-0.0063
684.2694	-0.0021
684.4523	-0.0039
684.6353	-0.0023
684.8182	-0.003
685.0011	-0.0009
685.184	-0.0049
685.3669	-0.0025
685.5498	-0.0021
685.7326	-0.0023
685.9154	0.0021
686.0982	-0.0022
686.281	-0.0073
686.4638	-0.0033
686.6465	-0.0042
686.8293	-0.0012
687.012	-0.0002
687.1947	-0.0071
687.3774	-0.0047
687.56	-0.0019
687.7427	-0.0013
687.9253	-0.001
688.1079	0.0033
688.2905	-0
688.4731	-0.0027
688.6556	-0.0067
688.8382	-0.0023
689.0207	0.0014
689.2032	0.0037
689.3857	0.0034
689.5681	0.0007
689.7506	0.0038
689.933	-0.0062
690.1154	-0.0007
690.2978	-0.003
690.4802	-0.008
690.6626	0.0045
690.8449	0.0028
691.0272	0.005
691.2095	0.0044
691.3918	-0.001
691.5741	-0.0065
691.7563	-0.0028
691.9386	-0.0035
692.1208	-0.0038
692.303	-0.0034
692.4852	-0.0029
692.6673	0.0003
692.8495	-0.0113
693.0316	-0.002
693.2137	-0.0067
693.3958	-0.0004
693.5778	-0.0025
693.7599	-0.0071
693.9419	-0.0108
694.1239	-0.0062
694.3059	-0.0083
694.4879	-0.0081
694.6699	-0.0086
694.8518	-0.0039
695.0337	-0.0056
695.2157	-0.0067
695.3975	-0.0102
695.5794	-0.0045
695.7613	-0.0094
695.9431	-0.0069
696.1249	-0.003
696.3067	-0.0067
696.4885	-0.0041
696.6703	-0.0005
696.852	-0.0011
697.0337	-0.0057
697.2154	-0.0034
697.3971	-0.0059
697.5788	-0.0014
697.7605	-0.0036
697.9421	-0.0009
698.1237	-0.004
698.3053	-0.0065
698.4869	-0.0024
698.6685	-0.0058
698.85	-0.0061
699.0315	-0.0046
699.213	0.0022
699.3945	-0.0005
699.576	0.0047
699.7575	-0.0004
699.9389	-0.0044
700.1203	-0.0016
700.3017	-0.0065
700.4831	-0.0072
700.6645	-0.0043
700.8458	-0.0074
701.0271	-0.002
701.2084	-0.0068
701.3897	-0.002
701.571	-0.0048
701.7523	-0.003
701.9335	0.0042
702.1147	0.0045
702.2959	-0.0026
702.4771	-0.0024
702.6583	-0.0059
702.8394	-0.0015
703.0205	0.0028
703.2016	-0.0026
703.3827	0.0063
703.5638	-0.0063
703.7449	-0.0061
703.9259	-0.0053
704.1069	-0.0012
704.2879	-0
704.4689	-0.0033
704.6499	-0.0011
704.8308	-0.002
705.0117	-0.0012
705.1927	-0.0044
705.3735	0.0032
705.5544	-0.0033
705.7353	0.0044
705.9161	0.0022
706.0969	0.007
706.2777	-0.0041
706.4585	-0.0027
706.6393	0.0047
706.82	-0.0056
707.0007	-0.0062
707.1815	-0.0006
707.3621	-0.0033
707.5428	-0.0052
707.7235	-0.0043
707.9041	-0.0011
708.0847	0.0005
708.2653	-0.0062
708.4459	-0.0015
708.6265	-0.0019
708.807	-0.0016
708.9875	-0.0037
709.168	-0.0031
709.3485	-0.0023
709.529	-0.0079
709.7095	-0.0031
709.8899	-0.0086
710.0703	-0.0004
710.2507	-0.0059
710.4311	-0.0039
710.6115	0.0048
710.7918	-0.0066
710.9721	0.0024
711.1524	0.0053
711.3327	-0.0003
711.513	-0.0054
711.6932	-0.0071
711.8735	0.0018
712.0537	0.0046
712.2339	-0.0004
712.4141	0.001
712.5942	0.0056
712.7744	0.0034
712.9545	0.0002
713.1346	0.0009
713.3147	0.0017
713.4947	0.0037
713.6748	-0.0051
713.8548	-0.0043
714.0348	-0.0078
714.2148	-0.0035
714.3948	-0.0046
714.5748	-0.007
714.7547	-0.0074
714.9346	-0.0007
715.1145	-0.0052
715.2944	0.0015
715.4743	-0.0047
715.6541	-0.0049
715.834	-0.0044
716.0138	0.0036
716.1936	0.0005
716.3733	-0.0083
716.5531	-0.005
716.7328	-0.0009
716.9126	-0.0024
717.0923	-0.0064
717.2719	-0.0131
717.4516	-0.0042
717.6312	-0.0008
717.8109	0
717.9905	-0.008
718.1701	-0.0028
718.3496	-0.0013
718.5292	-0.0025
718.7087	-0.006
718.8882	-0.0034
719.0677	-0.0006
719.2472	-0.0024
719.4267	-0.0095
719.6061	-0.0036
719.7856	-0.0042
719.965	-0.0108
720.1443	-0.0036
720.3237	-0.0033
720.5031	-0.0094
720.6824	-0.0074
720.8617	-0.0084
721.041	-0.0021
721.2203	-0.01
721.3995	-0.0015
721.5788	-0.0108
721.758	-0.0059
721.9372	-0.0076
722.1164	-0.0079
722.2956	-0.0072
722.4747	-0.0054
722.6538	-0.0076
722.8329	-0.006
723.012	-0.0052
723.1911	-0.0053
723.3702	0.0063
723.5492	-0.0029
723.7282	-0.0047
723.9072	-0.0031
724.0862	0.0006
724.2652	-0.0022
724.4441	-0.0122
724.623	0.0047
724.8019	-0.0061
724.9808	-0.0031
725.1597	0.0001
725.3385	0.0061
725.5174	0.0011
725.6962	-0.0125
725.875	0.0018
726.0538	0.003
726.2325	-0.001
726.4112	-0.0038
726.59	0.0011
726.7687	-0.0004
726.9474	-0.0034
727.126	-0.0055
727.3047	-0.0079
727.4833	-0.0027
727.6619	-0.0115
727.8405	-0.0014
728.0191	-0.0029
728.1976	-0.0131
728.3762	-0.0014
728.5547	-0.0004
728.7332	-0.0078
728.9116	-0.0146
729.0901	-0.0108
729.2686	-0.0061
729.447	-0.0085
729.6254	-0.009
729.8038	-0.0066
729.9821	-0.0003
730.1605	-0.001
730.3388	0.0045
730.5171	0.0034
730.6954	-0.0033
730.8737	-0.0039
731.0519	0
731.2302	0.0013
731.4084	0.0091
731.5866	0
731.7648	-0.0006
731.9429	0.0012
732.1211	-0.0014
732.2992	-0.002
732.4773	-0.0048
732.6554	-0.0051
732.8335	-0.0091
733.0115	-0.0049
733.1896	-0.0135
733.3676	-0.0041
733.5456	-0.0042
733.7235	-0.0059
733.9015	-0.0009
734.0794	0.0009
734.2574	-0.0033
734.4353	-0.001
734.6131	0.0031
734.791	-0.0058
734.9689	-0.0103
735.1467	0.0001
735.3245	0.0013
735.5023	-0.0044
735.68	-0.0005
735.8578	-0.0028
736.0355	0.0029
736.2132	0.0024
736.3909	-0.001
736.5686	0.0009
736.7463	-0.0049
736.9239	-0.0034
737.1015	-0.0023
737.2791	-0.0056
737.4567	-0.0091
737.6343	-0.0021
737.8118	-0.0046
737.9894	0.0006
738.1669	-0.005
738.3444	-0.0043
738.5218	0.0013
738.6993	-0.0002
738.8767	-0.0002
739.0541	-0.0059
739.2315	-0.0023
739.4089	0.0056
739.5863	-0.0072
739.7636	-0.0034
739.9409	-0.002
740.1182	0.0038
740.2955	0.0032
740.4728	-0
740.65	-0.0041
740.8272	0.0078
741.0044	0.001
741.1816	-0.0012
741.3588	0.0044
741.5359	0.0023
741.7131	0.0023
741.8902	0.0043
742.0673	0.0037
742.2444	-0.0062
742.4214	-0.0026
742.5985	-0.0092
742.7755	-0.004
742.9525	0.003
743.1295	-0.0068
743.3064	-0.0074
743.4834	0.0007
743.6603	-0.0046
743.8372	0.0015
744.0141	-0.0015
744.191	-0.006
744.3678	-0.006
744.5446	0.0038
744.7215	-0.0063
744.8982	-0.0019
745.075	-0.0045
745.2518	-0.0007
745.4285	-0.0052
745.6052	0.0018
745.7819	-0.0008
745.9586	-0.0026
746.1353	-0.0007
746.3119	0.0066
746.4885	-0.0061
746.6651	-0.0009
746.8417	-0.0079
747.0183	0.0003
747.1948	-0.0085
747.3714	-0.0091
747.5479	-0.0078
747.7244	-0.0015
747.9008	0.0022
748.0773	0.0069
748.2537	0.0022
748.4301	0.0039
748.6065	-0.0005
748.7829	0.0065
748.9593	-0.0014
749.1356	-0.0027
749.3119	0.002
749.4882	0.0072
749.6645	-0.0032
749.8408	-0.0022
750.017	-0.0085
750.1933	-0.0061
750.3695	-0.0037
750.5457	-0.007
750.7218	-0.0064
750.898	-0.0054
751.0741	-0.0076
751.2502	-0.0021
751.4263	-0.0049
751.6024	-0.0033
751.7784	0.0032
751.9545	0.0008
752.1305	-0.0035
752.3065	-0.0003
752.4825	-0.0034
752.6584	-0.0064
752.8344	0.0052
753.0103	-0.0041
753.1862	-0.0001
753.3621	-0.0055
753.5379	-0.0035
753.7138	0.0049
753.8896	-0.0095
754.0654	-0.0115
754.2412	-0.0126
754.417	-0.0044
754.5927	-0.0061
754.7685	-0.0098
754.9442	-0.0115
755.1199	-0.0108
755.2956	-0.0057
755.4712	-0.0096
755.6469	-0.01
755.8225	-0.0076
755.9981	-0.0078
756.1736	-0.0056
756.3492	-0.0082
756.5248	-0.0012
756.7003	-0.0091
756.8758	-0.0093
757.0513	-0.0025
757.2267	-0.0106
757.4022	-0.0094
757.5776	-0.0122
757.753	-0.0137
757.9284	-0.0072
758.1038	-0.0063
758.2791	-0.0143
758.4545	-0.0117
758.6298	-0.011
758.8051	-0.0017
758.9803	-0.0146
759.1556	-0.0106
759.3308	-0.0044
759.506	-0.0085
759.6812	-0.009
759.8564	-0.0045
760.0316	-0.0108
760.2067	-0.0083
760.3819	-0.0031
760.557	-0.011
760.732	-0.0105
760.9071	-0.0172
761.0821	-0.0135
761.2572	-0.011
761.4322	-0.0122
761.6072	-0.0126
761.7821	-0.0163
761.9571	-0.0082
762.132	-0.0089
762.3069	-0.0091
762.4818	-0.0081
762.6567	-0.0081
762.8316	0.0029
763.0064	-0.0039
763.1812	-0.0001
763.356	0.0048
763.5308	0.0008
763.7055	0.0039
763.8803	0.0004
764.055	-0.0005
764.2297	0.0045
764.4044	-0.0008
764.579	-0.002
764.7537	-0.0066
764.9283	-0.004
765.1029	0.0009
765.2775	-0.0012
765.4521	0.0088
765.6266	-0.001
765.8011	0.0017
765.9756	0.0047
766.1501	0.0062
766.3246	-0.0028
766.4991	-0.0038
766.6735	-0.0013
766.8479	-0.0086
767.0223	0.0041
767.1967	-0.0033
767.371	-0.0025
767.5454	-0.0058
767.7197	-0.0089
767.894	0.0012
768.0683	-0.002
768.2425	-0.0035
768.4168	-0.0051
768.591	-0.0016
768.7652	-0.0024
768.9394	0.0027
769.1135	0.0052
769.2877	0.0033
769.4618	0.0105
769.6359	-0.001
769.81	-0.0046
769.984	-0.001
770.1581	0.004
770.3321	0.0057
770.5061	-0.007
770.6801	0.0014
770.8541	-0.0041
771.028	0.0038
771.202	0.0051
771.3759	-0.0004
771.5498	-0.0009
771.7236	-0.0035
771.8975	0.0012
772.0713	0.0034
772.2451	-0.0001
772.4189	0.0026
772.5927	-0.0045
772.7665	-0.0015
772.9402	-0.0036
773.1139	0.0081
773.2876	-0.0045
773.4613	-0.0042
773.635	-0.0039
773.8086	0.0003
773.9822	0.0008
774.1558	-0.003
774.3294	0.0081
774.503	-0.0003
774.6765	-0.0009
774.8501	0.0091
775.0236	-0.0056
775.1971	-0.0128
775.3705	0.0013
775.544	-0.0044
775.7174	-0.0017
775.8908	-0.005
776.0642	-0.0041
776.2376	-0.003
776.4109	-0.0037
776.5843	0.0005
776.7576	-0.0053
776.9309	-0.0017
777.1041	0.0019
777.2774	0.002
777.4506	0.0042
777.6238	-0.0014
777.797	0.0006
777.9702	-0.0037
778.1434	-0.0051
778.3165	-0.0043
778.4896	-0.0173
778.6627	-0.0046
778.8358	-0.001
779.0089	-0.0016
779.1819	-0.0021
779.3549	0.0006
779.5279	-0.0014
779.7009	-0.0052
779.8739	0.0053
780.0468	-0.0073
780.2197	-0.0045
780.3926	0.0038
780.5655	-0.0092
780.7384	-0.0041
780.9112	-0.007
781.0841	0.0025
781.2569	0.0013
781.4297	-0.0061
781.6024	0.0033
781.7752	-0.0085
781.9479	0.0035
782.1206	-0.0024
782.2933	-0.0066
782.466	0.0042
782.6386	-0.0083
782.8113	-0.0189
782.9839	-0.0094
783.1565	-0.0102
783.329	-0.0069
783.5016	-0.0081
783.6741	-0.0074
783.8466	-0.0093
784.0191	-0.0061
784.1916	0.0013
784.3641	0.0003
784.5365	-0.0006
784.7089	0.003
784.8813	0.0098
785.0537	0.0083
785.2261	-0.0024
785.3984	-0.0037
785.5707	0.0034
785.743	-0.0019
785.9153	-0.0016
786.0876	0.0025
786.2598	0.0037
786.432	0.0096
786.6042	0.0064
786.7764	0.0041
786.9486	-0.0058
787.1207	-0.0063
787.2928	0.0027
787.4649	-0.001
787.637	0.0011
787.8091	0.0017
787.9811	0.0021
788.1532	-0.0018
788.3252	-0.0055
788.4972	-0.0051
788.6691	-0.0026
788.8411	-0.0006
789.013	-0.0053
789.1849	0.0106
789.3568	-0.01
789.5287	-0.0006
789.7005	0.0018
789.8723	-0.0002
790.0442	-0.01
790.2159	-0.0031
790.3877	-0.0133
790.5595	-0.0046
790.7312	0.003
790.9029	0.0024
791.0746	-0.0105
791.2463	-0.0063
791.4179	-0.0068
791.5896	0.0015
791.7612	0.0119
791.9328	-0.0022
792.1044	-0.0072
792.2759	0.0123
792.4474	-0.0037
792.619	-0.0051
792.7905	-0.0063
792.9619	-0.0013
793.1334	0.0003
793.3048	0.0002
793.4762	-0.0023
793.6476	-0.0179
793.819	-0.0066
793.9904	-0.0118
794.1617	-0.02
794.333	-0.0098
794.5043	-0.01
794.6756	0.0054
794.8469	0.0053
795.0181	-0.0136
795.1893	-0.0023
795.3605	-0.0079
795.5317	-0.007
795.7029	-0.0013
795.874	-0.0112
796.0452	-0.0055
796.2163	-0.0093
796.3873	-0.008
796.5584	-0.0132
796.7294	-0.0115
796.9005	-0.0088
797.0715	-0.0115
797.2425	-0.0149
797.4134	-0.0155
797.5844	-0.0161
797.7553	-0.0137
797.9262	-0.0147
798.0971	-0.0152
798.2679	-0.0114
798.4388	-0.0089
798.6096	-0.0227
798.7804	-0.0087
798.9512	-0.0083
799.122	-0.0109
799.2927	-0.019
799.4635	-0.0033
799.6342	-0.0091
799.8049	-0.0083
799.9755	-0.0095
800.1462	-0.0087
800.3168	-0.004
800.4874	-0.01
800.658	-0.007
800.8286	-0.0194
800.9991	-0.0127
801.1696	-0.0097
801.3402	-0.0185
801.5106	-0.0271
801.6811	-0.0249
801.8516	-0.0182
802.022	-0.0218
802.1924	-0.0222
802.3628	-0.0269
802.5332	-0.0188
802.7035	-0.0176
802.8739	-0.0086
803.0442	-0.0161
803.2145	-0.013
803.3847	-0.0264
803.555	-0.0233
803.7252	-0.0146
803.8954	-0.0157
804.0656	-0.0047
804.2358	-0.0171
804.4059	-0.0098
804.5761	-0.0093
804.7462	-0.0064
804.9163	-0.0151
805.0864	-0.0066
805.2564	-0.0182
805.4264	-0.0093
805.5965	-0.004
805.7665	-0.0151
805.9364	-0.008
806.1064	-0.0104
806.2763	-0.0182
806.4462	-0.0108
806.6161	-0.0102
806.786	-0.0122
806.9559	-0.0137
807.1257	-0.0103
807.2955	-0.0046
807.4653	-0.0046
807.6351	-0.0028
807.8048	-0.0001
807.9746	-0.0026
808.1443	0.0038
808.314	0.0025
808.4837	-0.0009
808.6533	-0.0013
808.8229	-0.0027
808.9926	0.0096
809.1622	-0.0082
809.3317	0.007
809.5013	0.005
809.6708	0.003
809.8403	-0.0037
810.0098	0.0085
810.1793	-0.001
810.3488	0.0048
810.5182	-0.0114
810.6876	-0.0022
810.857	-0.0135
811.0264	-0.012
811.1958	0.0055
811.3651	-0.0059
811.5344	-0.0022
811.7037	-0.0078
811.873	-0.0002
812.0422	-0.0121
812.2115	-0.004
812.3807	-0.0022
812.5499	-0.0075
812.7191	-0.0242
812.8882	-0.0032
813.0574	-0.015
813.2265	0.0046
813.3956	-0.0056
813.5646	-0.0113
813.7337	0.0111
813.9027	0.0043
814.0718	-0.0106
814.2407	0.0091
814.4097	-0.01
814.5787	0.0043
814.7476	-0.0016
814.9165	-0.0005
815.0854	-0.008
815.2543	0.0024
815.4232	0.0056
815.592	0.0071
815.7608	0.0007
815.9296	0.011
816.0984	-0.0055
816.2671	0.001
816.4359	0.0022
816.6046	0.0046
816.7733	-0.0011
816.942	0.0063
817.1106	-0.0059
817.2793	0.0009
817.4479	-0.0087
817.6165	-0.0066
817.785	-0.0062
817.9536	-0.0003
818.1221	-0.0019
818.2906	-0.0042
818.4591	-0.0224
818.6276	0.0023
818.7961	-0.0187
818.9645	-0.0188
819.1329	-0.0044
819.3013	-0.017
819.4697	-0.0175
819.638	-0.0141
819.8064	-0.0085
819.9747	0.0056
820.143	0.0026
820.3113	0.0006
820.4795	0.0088
820.6477	-0.0038
820.816	-0.0072
820.9842	-0.0038
821.1523	-0.0237
821.3205	-0.007
821.4886	-0.0004
821.6567	0.003
821.8248	-0.0136
821.9929	-0.009
822.1609	-0.0162
822.329	-0.0025
822.497	-0.0024
822.665	-0.0102
822.833	-0.0183
823.0009	-0.0188
823.1688	-0.0172
823.3367	-0.0047
823.5046	-0.0054
823.6725	-0.0197
823.8404	0.0016
824.0082	0.0002
824.176	0.0031
824.3438	-0.0072
824.5116	0.0115
824.6793	-0.0093
824.847	-0.0047
825.0147	-0.0135
825.1824	-0.0321
825.3501	-0.0027
825.5177	-0.0111
825.6854	0.0008
825.853	0.007
826.0206	-0.0094
826.1881	0.0089
826.3557	0.0034
826.5232	0.0012
826.6907	0.0045
826.8582	0.0007
827.0257	-0.0215
827.1931	0.0143
827.3605	0.0072
827.528	-0.0003
827.6953	0.0023
827.8627	-0.0106
828.03	-0.0074
828.1974	0.001
828.3647	0.0171
828.532	-0.0104
828.6992	-0.0051
828.8665	-0.0167
829.0337	-0.0134
829.2009	-0.0039
829.3681	-0.0209
829.5352	-0.0003
829.7024	0.0064
829.8695	-0.0233
830.0366	-0.0206
830.2037	-0.0224
830.3707	-0.0146
830.5378	-0.0136
830.7048	-0.0252
830.8718	-0.0023
831.0388	-0.0054
831.2057	-0.0163
831.3727	-0.014
831.5396	0.0148
831.7065	0.0024
831.8734	0.0048
832.0402	-0.007
832.2071	0.0059
832.3739	0.0082
832.5407	-0.0063
832.7075	-0.0071
832.8742	0.0154
833.041	0.0124
833.2077	-0.0221
833.3744	0.0046
833.541	-0.0006
833.7077	-0.0041
833.8743	0.0086
834.0409	0.0041
834.2075	0.0009
834.3741	-0.0098
834.5407	-0.0049
834.7072	0.0034
834.8737	-0.0033
835.0402	-0.0356
835.2067	-0.0177
835.3731	-0.0079
835.5395	-0.0149
835.706	-0.0217
835.8723	-0.0011
836.0387	-0.006
836.2051	-0.0101
836.3714	0.0158
836.5377	0.0115
836.704	-0.0019
836.8703	-0.0273
837.0365	0.0045
837.2027	-0.0042
837.3689	-0.015
837.5351	-0.0065
837.7013	-0.0088
837.8674	-0.0037
838.0335	-0.016
838.1997	0.0054
838.3657	-0.0053
838.5318	-0.0165
838.6978	-0.0143
838.8639	0.0223
839.0299	-0.0038
839.1958	0.0033
839.3618	0.0166
839.5277	-0.0056
839.6937	-0.0079
839.8596	0.0249
840.0254	-0.0095
840.1913	0.01
840.3571	0.0139
840.523	-0.0005
840.6888	0.0043
840.8545	0.0054
841.0203	-0.0043
841.186	-0.0071
841.3517	-0.0045
841.5174	0.0047
841.6831	0.0278
841.8488	0.0095
842.0144	0.0007
842.18	-0.0133
842.3456	-0.0041
842.5112	0.0042
842.6767	0.0063
842.8422	0.0004
843.0077	0.0178
843.1732	-0.0126
843.3387	-0.0098
843.5042	-0.0095
843.6696	0.0119
843.835	-0.0267
844.0004	0.0018
844.1657	0.0113
844.3311	0.0005
844.4964	0.0096
844.6617	-0.006
844.827	-0.0051
844.9923	-0.0006
845.1575	0.0023
845.3227	-0.025
845.4879	0.0021
845.6531	-0.0026
845.8183	-0.0094
845.9834	-0.0182
846.1485	0.014
846.3136	-0.0435
846.4787	-0.021
846.6438	0.0056
846.8088	0.0323
846.9738	0.0086
847.1388	-0.0105
847.3038	0.0228
847.4687	0.0154
847.6337	0.0304
847.7986	0.0234
847.9635	0.0183
848.1284	-0.0213
848.2932	-0.0078
848.458	0.0112
848.6228	0.0047
848.7876	-0.0161
848.9524	0.039
849.1172	-0.0014
849.2819	-0.0061
849.4466	-0.0158
849.6113	-0.0154
849.7759	-0.0167
849.9406	0.0155
850.1052	-0.0054
850.2698	-0.0232
850.4344	-0.003
850.599	0.0071
850.7635	0.0111
850.928	-0.0321
851.0925	0.0325
851.257	-0.0038
851.4215	-0.0128
851.5859	0.0593
851.7503	-0.0049
851.9147	0.0158
852.0791	0.0273
852.2434	0.0063
852.4078	0.016
852.5721	-0.0445
852.7364	-0.0884
852.9007	-0.0011
853.0649	-0.027
853.2291	0.0211
853.3934	0.035
853.5575	-0.014
853.7217	-0.0285
853.8859	0.0195
854.05	0.0018
854.2141	-0.0087
854.3782	0.0313
854.5423	-0.0202
854.7063	0.0175
854.8703	-0.02
855.0343	0.0076
855.1983	0.0118
855.3623	-0.0292
855.5262	0.0182
855.6901	0.0429
855.854	-0.0225
856.0179	0.0559
856.1818	0.025
856.3456	-0.0398
856.5094	-0.0038
856.6732	-0.0526
856.837	-0.0093
857.0008	-0.0007
857.1645	0.0061
857.3282	0.0246
857.4919	-0.0584
857.6556	0.048
857.8192	0.0413
857.9828	0.0258
858.1465	0.0668
858.31	0.0168
858.4736	-0.0235
858.6372	0.0096
858.8007	-0.0386
858.9642	-0.0349
859.1277	0.0728
859.2911	-0.0009
859.4546	0.063
859.618	-0.0277
859.7814	0.0628
859.9448	-0.0193
860.1081	-0.012
860.2715	0.0241
860.4348	-0.0133
860.5981	0.0193
860.7614	-0.1409
860.9246	-0.0282
861.0879	-0.0335
861.2511	0.1171
861.4143	-0.0833
861.5774	-0.0401
861.7406	0.0495
861.9037	-0.1126
862.0668	0.0143
862.2299	0.0025
862.393	0.0178
862.556	0.0617
862.7191	0.0199
862.8821	-0.0533
863.0451	0.1287
863.208	-0.1176
863.371	0.0331
863.5339	-0.1268
863.6968	-0.1211
863.8597	-0.0731
864.0225	-0.1699
864.1854	-0.0394
864.3482	0.0425
864.511	-0.0089
864.6737	-0.014
864.8365	0.1078
864.9992	0.0621
865.1619	-0.085
865.3246	-0.1319
865.4873	0.1311
865.65	-0.0907
865.8126	0.0198
865.9752	0.0934
866.1378	-0.1442
866.3004	-0.106
866.4629	0.1105
866.6254	0.0675
866.7879	-0.1112
866.9504	-0.1248
867.1129	-0.0136
867.2753	-0.0079
867.4377	0.0899
867.6001	-0.1391
867.7625	0.1389
867.9249	-0.072
868.0872	0.0808
868.2495	-0.0893
868.4118	-0.0061
868.5741	-0.145
868.7363	-0.0843
868.8986	-0.1135
869.0608	-0.1383
869.223	0.076
869.3851	0.0115
869.5473	-0.0864
869.7094	-0.2268
869.8715	0.3085
870.0336	-0.0032
870.1957	0.0754
870.3577	-0.0669
870.5197	-0.317
870.6817	-0.0164
870.8437	0.0252
871.0057	0.0032
871.1676	-0.0965
871.3295	-0.3753
871.4914	0.3301
871.6533	-0.0945
871.8151	-0.0301
871.977	0.2372
872.1388	-0.1175
872.3006	-0.0963
872.4623	-0.0036
872.6241	0.3105
872.7858	0.3883
872.9475	-0.261
873.1092	-0.1844
873.2709	0.2724
873.4325	0.1872
873.5941	-0.0681
873.7557	0.0621
873.9173	0.0154
874.0789	-0.1221
874.2404	-0.1692
874.4019	-0.3246
874.5634	-0.3029
874.7249	-0.233
874.8863	-0.1376
875.0478	0.4548
875.2092	-0.3765
875.3706	-0.185
875.5319	-0.1123
875.6933	-0.314
875.8546	-0.2028
876.0159	0.0576
876.1772	-0.4165
876.3385	-0
876.4997	-0.1821
876.6609	0.368
876.8221	0.3381
876.9833	-0.7066
877.1445	-0.1423
877.3056	0.0791
877.4667	-1.1309
877.6278	0.2551
877.7889	0.0511
877.9499	0.0121
878.111	-0.2181
878.272	0.2135
878.433	0.1474
878.5939	-0.021
878.7549	-0.1771
878.9158	0.1451
879.0767	0.1054
879.2376	0.139
879.3984	-0.2083
879.5593	0.8635
879.7201	0.8471
879.8809	0.453
880.0417	-0.1531
880.2024	0.1161
880.3632	-0.1113
880.5239	-0
880.6846	-0.1466
880.8452	-0.0687
881.0059	0.4021
881.1665	-0
881.3271	-0.3746
881.4877	0.0961
881.6483	-0.0285
881.8088	-0.1395
881.9693	0.109
882.1298	0.109
882.2903	0.109
