Data from MonoPyChalIsomerACN10uM450nmA_Absorbance_13-11-23-892.txt Node
Date: Tue Jul 09 13:11:23 BST 2024
User: LASERRRRR
Spectrometer: FLMT03099
Trigger mode: 0
Integration Time (sec): 2.000000E-1
Scans to average: 1
Electric dark correction enabled: true
Nonlinearity correction enabled: false
Boxcar width: 0
XAxis mode: Wavelengths
Number of Pixels in Spectrum: 3648
>>>>>Begin Spectral Data<<<<<
179.3399	-0.1535
179.5586	-0.1535
179.7771	-0.1535
179.9957	-0.3761
180.2143	-0.3731
180.4329	-0.2043
180.6514	-0
180.8699	-0.4242
181.0885	-0
181.307	-0
181.5255	0.1457
181.744	-0
181.9625	-0.0266
182.181	-0
182.3994	0.0085
182.6179	-0.2752
182.8363	-0.9605
183.0547	0.1014
183.2732	0.1759
183.4916	0.0341
183.71	0.1952
183.9284	0.1278
184.1467	0.0297
184.3651	0.1128
184.5835	0.0576
184.8018	-0.04
185.0201	0.0978
185.2385	-0.0542
185.4568	-0.0838
185.6751	0.0522
185.8934	0.09
186.1117	-0.0033
186.3299	-0.1103
186.5482	0.0301
186.7664	-0.0176
186.9847	0.0576
187.2029	0.1257
187.4211	-0.0253
187.6393	-0.0335
187.8575	0.0783
188.0757	-0.012
188.2939	0.0471
188.512	0.0711
188.7302	0.0469
188.9483	0.0395
189.1665	0.0555
189.3846	0.1911
189.6027	0.1685
189.8208	0.1203
190.0389	0.1827
190.257	0.2262
190.475	0.213
190.6931	0.1031
190.9111	0.2316
191.1292	0.2572
191.3472	0.3176
191.5652	0.335
191.7832	0.3326
192.0012	0.3731
192.2192	0.4844
192.4371	0.4713
192.6551	0.527
192.873	0.4349
193.091	0.4627
193.3089	0.6229
193.5268	0.4891
193.7447	0.5421
193.9626	0.5083
194.1805	0.5351
194.3984	0.4794
194.6162	0.5526
194.8341	0.568
195.0519	0.5289
195.2697	0.5402
195.4875	0.5798
195.7054	0.5634
195.9231	0.6654
196.1409	0.6074
196.3587	0.6407
196.5765	0.6407
196.7942	0.6761
197.012	0.627
197.2297	0.6667
197.4474	0.7052
197.6651	0.7034
197.8828	0.7889
198.1005	0.8043
198.3182	0.7437
198.5358	0.7268
198.7535	0.6748
198.9711	0.8511
199.1888	0.7837
199.4064	0.8761
199.624	0.7703
199.8416	0.7231
200.0592	0.7993
200.2767	0.7806
200.4943	0.8012
200.7119	0.8587
200.9294	0.8779
201.1469	0.7496
201.3645	0.9282
201.582	0.9653
201.7995	0.735
202.017	0.9134
202.2344	0.7371
202.4519	0.9581
202.6694	0.7702
202.8868	0.9252
203.1042	0.9554
203.3217	0.98
203.5391	0.9522
203.7565	0.9343
203.9739	1.0085
204.1913	0.859
204.4086	0.9442
204.626	0.9828
204.8433	0.8461
205.0607	0.8555
205.278	0.8907
205.4953	1.0411
205.7126	0.8985
205.9299	1.0033
206.1472	0.9574
206.3644	1.0798
206.5817	1.1126
206.7989	0.9871
207.0162	1.0343
207.2334	0.9196
207.4506	0.9468
207.6678	1.1191
207.885	1.0411
208.1022	0.9753
208.3194	1.1289
208.5365	1.022
208.7537	1.0036
208.9708	0.9443
209.1879	1.0484
209.405	1.0505
209.6222	1.0073
209.8392	1.0728
210.0563	0.9729
210.2734	1.0883
210.4905	1.0293
210.7075	1.0496
210.9245	0.9768
211.1416	1.1574
211.3586	1.0778
211.5756	1.0327
211.7926	1.0569
212.0096	1.0221
212.2265	1.0383
212.4435	1.0342
212.6604	1.0922
212.8774	1.0349
213.0943	0.9799
213.3112	0.9871
213.5281	1.1335
213.745	0.9946
213.9619	0.9391
214.1788	0.9841
214.3956	1.0055
214.6125	0.8507
214.8293	0.8093
215.0461	0.8729
215.2629	0.9165
215.4798	0.8511
215.6965	0.8061
215.9133	0.8543
216.1301	0.8022
216.3469	0.8254
216.5636	0.7663
216.7803	0.7672
216.9971	0.7456
217.2138	0.7071
217.4305	0.7305
217.6472	0.6878
217.8639	0.6517
218.0805	0.5963
218.2972	0.5761
218.5138	0.546
218.7305	0.5283
218.9471	0.4762
219.1637	0.4551
219.3803	0.4299
219.5969	0.3976
219.8135	0.3711
220.0301	0.3471
220.2466	0.3481
220.4632	0.3368
220.6797	0.3193
220.8962	0.3084
221.1127	0.2997
221.3292	0.3121
221.5457	0.2764
221.7622	0.2922
221.9787	0.2834
222.1951	0.2829
222.4116	0.2747
222.628	0.2902
222.8444	0.273
223.0608	0.2695
223.2772	0.2715
223.4936	0.2765
223.71	0.2613
223.9264	0.2813
224.1427	0.2679
224.3591	0.2699
224.5754	0.275
224.7917	0.2887
225.008	0.2778
225.2243	0.2741
225.4406	0.28
225.6569	0.2771
225.8732	0.2887
226.0894	0.2758
226.3057	0.2845
226.5219	0.291
226.7381	0.2934
226.9543	0.2796
227.1705	0.2934
227.3867	0.3133
227.6029	0.2859
227.8191	0.2906
228.0352	0.3017
228.2513	0.3059
228.4675	0.3028
228.6836	0.3222
228.8997	0.3199
229.1158	0.3232
229.3319	0.3121
229.548	0.3259
229.764	0.3221
229.9801	0.3184
230.1961	0.3263
230.4121	0.3352
230.6282	0.3434
230.8442	0.3307
231.0602	0.3524
231.2761	0.34
231.4921	0.3469
231.7081	0.3582
231.924	0.3646
232.14	0.3647
232.3559	0.372
232.5718	0.3538
232.7877	0.3516
233.0036	0.3755
233.2195	0.3647
233.4353	0.3761
233.6512	0.3678
233.867	0.36
234.0829	0.384
234.2987	0.375
234.5145	0.3809
234.7303	0.3931
234.9461	0.3992
235.1619	0.3799
235.3776	0.3898
235.5934	0.3932
235.8091	0.3885
236.0249	0.389
236.2406	0.3973
236.4563	0.3907
236.672	0.4131
236.8877	0.4102
237.1034	0.3883
237.319	0.4044
237.5347	0.406
237.7503	0.4124
237.966	0.4135
238.1816	0.4107
238.3972	0.4084
238.6128	0.4037
238.8284	0.4227
239.0439	0.4217
239.2595	0.4268
239.475	0.4159
239.6906	0.426
239.9061	0.3982
240.1216	0.4163
240.3371	0.4238
240.5526	0.4283
240.7681	0.4038
240.9836	0.4131
241.199	0.4029
241.4145	0.3977
241.6299	0.4008
241.8453	0.4077
242.0607	0.3854
242.2761	0.3949
242.4915	0.3861
242.7069	0.3786
242.9223	0.3647
243.1376	0.3768
243.353	0.3575
243.5683	0.3637
243.7836	0.3478
243.9989	0.3364
244.2142	0.3328
244.4295	0.3303
244.6448	0.3238
244.86	0.3288
245.0753	0.3066
245.2905	0.3067
245.5057	0.3015
245.721	0.2991
245.9362	0.2777
246.1514	0.2798
246.3665	0.2837
246.5817	0.2687
246.7969	0.2781
247.012	0.2733
247.2271	0.265
247.4423	0.26
247.6574	0.2633
247.8725	0.2484
248.0876	0.2602
248.3026	0.2493
248.5177	0.2542
248.7328	0.2361
248.9478	0.2409
249.1628	0.2316
249.3779	0.2243
249.5929	0.2331
249.8079	0.2437
250.0228	0.23
250.2378	0.2275
250.4528	0.2155
250.6677	0.2213
250.8827	0.211
251.0976	0.2084
251.3125	0.2105
251.5274	0.2187
251.7423	0.2143
251.9572	0.215
252.172	0.2094
252.3869	0.2062
252.6017	0.2064
252.8166	0.2067
253.0314	0.2028
253.2462	0.2111
253.461	0.2051
253.6758	0.1974
253.8906	0.2021
254.1053	0.1974
254.3201	0.2007
254.5348	0.2063
254.7496	0.2057
254.9643	0.1963
255.179	0.2026
255.3937	0.1943
255.6083	0.1977
255.823	0.1922
256.0377	0.1961
256.2523	0.1936
256.467	0.199
256.6816	0.1947
256.8962	0.1937
257.1108	0.196
257.3254	0.1964
257.54	0.1909
257.7545	0.1923
257.9691	0.1946
258.1836	0.1872
258.3981	0.2003
258.6127	0.1984
258.8272	0.1949
259.0417	0.1972
259.2561	0.1995
259.4706	0.1865
259.6851	0.1862
259.8995	0.1975
260.114	0.1923
260.3284	0.2005
260.5428	0.2004
260.7572	0.2087
260.9716	0.1945
261.186	0.1991
261.4003	0.2049
261.6147	0.1978
261.829	0.1991
262.0433	0.1989
262.2577	0.1986
262.472	0.1966
262.6863	0.191
262.9005	0.1957
263.1148	0.1982
263.3291	0.1908
263.5433	0.187
263.7576	0.189
263.9718	0.197
264.186	0.1841
264.4002	0.1858
264.6144	0.1906
264.8286	0.1809
265.0427	0.1795
265.2569	0.1826
265.471	0.1816
265.6851	0.174
265.8993	0.175
266.1134	0.171
266.3275	0.181
266.5415	0.1697
266.7556	0.1865
266.9697	0.174
267.1837	0.174
267.3978	0.1886
267.6118	0.193
267.8258	0.1887
268.0398	0.1979
268.2538	0.1926
268.4677	0.1999
268.6817	0.1976
268.8957	0.1905
269.1096	0.1846
269.3235	0.175
269.5374	0.178
269.7514	0.1657
269.9652	0.1667
270.1791	0.1585
270.393	0.1519
270.6068	0.1574
270.8207	0.1466
271.0345	0.1526
271.2483	0.1536
271.4622	0.1476
271.676	0.1494
271.8897	0.1506
272.1035	0.1351
272.3173	0.1495
272.531	0.1413
272.7448	0.1445
272.9585	0.1399
273.1722	0.1374
273.3859	0.1429
273.5996	0.1284
273.8133	0.1459
274.0269	0.1482
274.2406	0.1439
274.4542	0.1438
274.6679	0.1341
274.8815	0.1429
275.0951	0.1499
275.3087	0.14
275.5223	0.1334
275.7358	0.1347
275.9494	0.1535
276.1629	0.1423
276.3765	0.1418
276.59	0.1446
276.8035	0.1508
277.017	0.1418
277.2305	0.1445
277.444	0.1391
277.6574	0.1507
277.8709	0.1553
278.0843	0.1486
278.2978	0.1466
278.5112	0.1485
278.7246	0.1392
278.938	0.1534
279.1513	0.1474
279.3647	0.1515
279.5781	0.1487
279.7914	0.1496
280.0047	0.1458
280.2181	0.1475
280.4314	0.1497
280.6447	0.1491
280.8579	0.1498
281.0712	0.1551
281.2845	0.1466
281.4977	0.1602
281.711	0.1524
281.9242	0.1517
282.1374	0.1516
282.3506	0.1441
282.5638	0.1562
282.7769	0.1596
282.9901	0.1525
283.2033	0.1553
283.4164	0.1567
283.6295	0.1565
283.8426	0.1578
284.0557	0.1522
284.2688	0.1479
284.4819	0.1523
284.695	0.1586
284.908	0.1557
285.1211	0.1611
285.3341	0.1553
285.5471	0.1571
285.7601	0.1536
285.9731	0.1552
286.1861	0.1651
286.3991	0.1582
286.612	0.1514
286.825	0.1549
287.0379	0.1612
287.2508	0.1507
287.4637	0.168
287.6766	0.1581
287.8895	0.1625
288.1024	0.1653
288.3152	0.1538
288.5281	0.1627
288.7409	0.152
288.9538	0.16
289.1666	0.1645
289.3794	0.155
289.5922	0.1623
289.8049	0.1611
290.0177	0.1618
290.2304	0.1615
290.4432	0.1612
290.6559	0.1655
290.8686	0.1569
291.0813	0.1595
291.294	0.1661
291.5067	0.1564
291.7194	0.1591
291.932	0.163
292.1447	0.1588
292.3573	0.1554
292.5699	0.1684
292.7825	0.1588
292.9951	0.1654
293.2077	0.1563
293.4203	0.1581
293.6328	0.1665
293.8454	0.1598
294.0579	0.1638
294.2704	0.1636
294.4829	0.1672
294.6954	0.1591
294.9079	0.166
295.1204	0.1668
295.3328	0.1559
295.5453	0.1617
295.7577	0.1497
295.9701	0.1581
296.1825	0.159
296.3949	0.1538
296.6073	0.1601
296.8197	0.158
297.0321	0.1597
297.2444	0.1553
297.4567	0.1569
297.6691	0.1606
297.8814	0.146
298.0937	0.1595
298.306	0.1593
298.5182	0.1521
298.7305	0.1597
298.9428	0.1469
299.155	0.1578
299.3672	0.157
299.5794	0.1586
299.7916	0.1543
300.0038	0.1518
300.216	0.1598
300.4282	0.1556
300.6403	0.1622
300.8525	0.1487
301.0646	0.1545
301.2767	0.1546
301.4888	0.1506
301.7009	0.1565
301.913	0.1686
302.125	0.1589
302.3371	0.1594
302.5491	0.1567
302.7612	0.159
302.9732	0.1632
303.1852	0.1552
303.3972	0.155
303.6092	0.1601
303.8211	0.1529
304.0331	0.149
304.245	0.1536
304.457	0.1561
304.6689	0.1538
304.8808	0.1501
305.0927	0.1555
305.3046	0.1473
305.5164	0.151
305.7283	0.1442
305.9401	0.1466
306.152	0.146
306.3638	0.1475
306.5756	0.1441
306.7874	0.1418
306.9992	0.1366
307.2109	0.1386
307.4227	0.1379
307.6344	0.1275
307.8462	0.1276
308.0579	0.1337
308.2696	0.1247
308.4813	0.1305
308.693	0.1278
308.9046	0.1214
309.1163	0.1272
309.328	0.1179
309.5396	0.1187
309.7512	0.1203
309.9628	0.1173
310.1744	0.1191
310.386	0.1082
310.5976	0.1172
310.8091	0.1195
311.0207	0.113
311.2322	0.1209
311.4437	0.1181
311.6552	0.108
311.8667	0.1116
312.0782	0.1101
312.2897	0.1021
312.5012	0.1139
312.7126	0.0969
312.924	0.0964
313.1355	0.1046
313.3469	0.1046
313.5583	0.1059
313.7696	0.1113
313.981	0.1027
314.1924	0.1021
314.4037	0.0956
314.6151	0.0944
314.8264	0.1065
315.0377	0.0954
315.249	0.1017
315.4603	0.1031
315.6716	0.0996
315.8828	0.0988
316.0941	0.0929
316.3053	0.092
316.5165	0.0911
316.7277	0.0871
316.9389	0.1001
317.1501	0.0936
317.3613	0.0912
317.5724	0.0959
317.7836	0.0953
317.9947	0.1012
318.2058	0.0955
318.417	0.0858
318.6281	0.0924
318.8391	0.088
319.0502	0.0937
319.2613	0.0966
319.4723	0.0985
319.6834	0.0943
319.8944	0.0973
320.1054	0.0921
320.3164	0.1074
320.5274	0.1004
320.7383	0.0907
320.9493	0.1011
321.1602	0.0958
321.3712	0.1018
321.5821	0.0977
321.793	0.0951
322.0039	0.0888
322.2148	0.0948
322.4257	0.0963
322.6365	0.0899
322.8474	0.1008
323.0582	0.1049
323.269	0.095
323.4798	0.096
323.6906	0.0946
323.9014	0.0946
324.1122	0.0993
324.3229	0.1008
324.5337	0.0967
324.7444	0.098
324.9551	0.103
325.1658	0.0947
325.3765	0.0963
325.5872	0.0958
325.7979	0.1032
326.0085	0.1071
326.2192	0.1025
326.4298	0.1027
326.6404	0.103
326.851	0.0989
327.0616	0.094
327.2722	0.1009
327.4828	0.0988
327.6933	0.0999
327.9039	0.1073
328.1144	0.0979
328.3249	0.1047
328.5354	0.099
328.7459	0.1024
328.9564	0.1006
329.1669	0.1064
329.3773	0.104
329.5878	0.1117
329.7982	0.1061
330.0086	0.1057
330.219	0.1096
330.4294	0.0988
330.6398	0.1109
330.8502	0.1051
331.0605	0.1036
331.2708	0.1015
331.4812	0.1078
331.6915	0.0974
331.9018	0.1004
332.1121	0.1021
332.3224	0.1051
332.5326	0.0992
332.7429	0.1043
332.9531	0.1033
333.1633	0.1217
333.3735	0.1079
333.5837	0.1056
333.7939	0.1082
334.0041	0.1047
334.2143	0.1042
334.4244	0.1031
334.6346	0.1019
334.8447	0.1034
335.0548	0.1039
335.2649	0.1061
335.475	0.0963
335.685	0.113
335.8951	0.1087
336.1051	0.1048
336.3152	0.1031
336.5252	0.1043
336.7352	0.1106
336.9452	0.1045
337.1552	0.11
337.3652	0.1089
337.5751	0.1125
337.7851	0.0957
337.995	0.1108
338.2049	0.1088
338.4148	0.1127
338.6247	0.1073
338.8346	0.1094
339.0445	0.1094
339.2543	0.1119
339.4642	0.1173
339.674	0.1068
339.8838	0.1132
340.0936	0.1139
340.3034	0.1167
340.5132	0.1098
340.7229	0.1197
340.9327	0.1197
341.1424	0.1118
341.3522	0.1119
341.5619	0.1235
341.7716	0.1207
341.9813	0.1183
342.1909	0.1177
342.4006	0.1095
342.6102	0.1209
342.8199	0.1182
343.0295	0.1182
343.2391	0.1251
343.4487	0.1149
343.6583	0.1191
343.8679	0.1188
344.0774	0.1279
344.287	0.1248
344.4965	0.1245
344.706	0.1271
344.9155	0.1258
345.125	0.1294
345.3345	0.1307
345.544	0.1124
345.7534	0.1274
345.9629	0.1278
346.1723	0.13
346.3817	0.1362
346.5911	0.1294
346.8005	0.125
347.0099	0.1189
347.2193	0.1342
347.4286	0.135
347.638	0.1376
347.8473	0.1257
348.0566	0.1313
348.2659	0.1284
348.4752	0.1308
348.6845	0.1292
348.8937	0.1387
349.103	0.1338
349.3122	0.1334
349.5214	0.1331
349.7306	0.1318
349.9398	0.1331
350.149	0.135
350.3582	0.1327
350.5674	0.1427
350.7765	0.1382
350.9856	0.1348
351.1948	0.1373
351.4039	0.1373
351.613	0.1304
351.822	0.1361
352.0311	0.1356
352.2402	0.1421
352.4492	0.1389
352.6582	0.1466
352.8672	0.1355
353.0762	0.1464
353.2852	0.1568
353.4942	0.1467
353.7032	0.1479
353.9121	0.1491
354.1211	0.1479
354.33	0.1453
354.5389	0.1454
354.7478	0.1478
354.9567	0.1452
355.1655	0.1475
355.3744	0.1642
355.5833	0.1511
355.7921	0.1521
356.0009	0.1516
356.2097	0.1495
356.4185	0.1525
356.6273	0.1671
356.8361	0.154
357.0448	0.1539
357.2536	0.1475
357.4623	0.1519
357.671	0.1592
357.8797	0.1635
358.0884	0.1565
358.2971	0.1634
358.5057	0.1554
358.7144	0.159
358.923	0.1628
359.1316	0.1642
359.3402	0.179
359.5488	0.1706
359.7574	0.1743
359.966	0.1686
360.1746	0.159
360.3831	0.1829
360.5916	0.1749
360.8002	0.1743
361.0087	0.1732
361.2172	0.1778
361.4256	0.1759
361.6341	0.1838
361.8426	0.1864
362.051	0.1724
362.2594	0.1793
362.4678	0.1752
362.6762	0.1834
362.8846	0.1739
363.093	0.1853
363.3014	0.1894
363.5097	0.192
363.718	0.1909
363.9264	0.1818
364.1347	0.197
364.343	0.1856
364.5513	0.1862
364.7595	0.1904
364.9678	0.1845
365.176	0.1886
365.3842	0.1875
365.5925	0.1958
365.8007	0.1937
366.0089	0.2001
366.217	0.1844
366.4252	0.2082
366.6333	0.1918
366.8415	0.1854
367.0496	0.1964
367.2577	0.2103
367.4658	0.2024
367.6739	0.1982
367.882	0.2012
368.09	0.1964
368.2981	0.2107
368.5061	0.1918
368.7141	0.2032
368.9221	0.1959
369.1301	0.2129
369.3381	0.2114
369.5461	0.211
369.754	0.2075
369.962	0.2023
370.1699	0.2077
370.3778	0.2082
370.5857	0.2113
370.7936	0.2049
371.0015	0.2139
371.2093	0.2103
371.4172	0.2126
371.625	0.215
371.8328	0.2104
372.0406	0.2254
372.2484	0.2112
372.4562	0.2197
372.664	0.2229
372.8717	0.2195
373.0795	0.2103
373.2872	0.2201
373.4949	0.2209
373.7026	0.2179
373.9103	0.2139
374.118	0.2222
374.3256	0.2153
374.5333	0.2166
374.7409	0.2207
374.9485	0.224
375.1561	0.2215
375.3637	0.2143
375.5713	0.2228
375.7789	0.2229
375.9864	0.2311
376.194	0.2285
376.4015	0.2369
376.609	0.2344
376.8165	0.2216
377.024	0.2246
377.2315	0.2329
377.4389	0.2279
377.6464	0.2256
377.8538	0.2334
378.0612	0.2302
378.2686	0.228
378.476	0.233
378.6834	0.2327
378.8908	0.2424
379.0981	0.2384
379.3055	0.238
379.5128	0.2343
379.7201	0.2369
379.9274	0.24
380.1347	0.2449
380.342	0.2341
380.5492	0.2433
380.7565	0.2575
380.9637	0.2564
381.1709	0.2437
381.3781	0.2359
381.5853	0.2532
381.7925	0.2388
381.9997	0.2486
382.2068	0.246
382.4139	0.2445
382.6211	0.2471
382.8282	0.2411
383.0353	0.2427
383.2424	0.2432
383.4494	0.2468
383.6565	0.2524
383.8635	0.2587
384.0706	0.2444
384.2776	0.2592
384.4846	0.2411
384.6916	0.2466
384.8986	0.2531
385.1055	0.2587
385.3125	0.2524
385.5194	0.2517
385.7263	0.2571
385.9333	0.26
386.1402	0.2479
386.347	0.2455
386.5539	0.2539
386.7608	0.2534
386.9676	0.2542
387.1744	0.2423
387.3813	0.2437
387.5881	0.2402
387.7948	0.2444
388.0016	0.243
388.2084	0.2494
388.4151	0.2465
388.6219	0.2448
388.8286	0.2535
389.0353	0.2367
389.242	0.2405
389.4487	0.2298
389.6553	0.2377
389.862	0.2297
390.0686	0.2335
390.2753	0.2382
390.4819	0.2303
390.6885	0.2411
390.8951	0.2308
391.1016	0.2382
391.3082	0.2397
391.5147	0.2425
391.7213	0.2333
391.9278	0.2314
392.1343	0.236
392.3408	0.2264
392.5473	0.2249
392.7537	0.2374
392.9602	0.224
393.1666	0.2243
393.373	0.227
393.5794	0.2284
393.7858	0.2217
393.9922	0.2199
394.1986	0.2185
394.4049	0.2279
394.6113	0.218
394.8176	0.2045
395.0239	0.2124
395.2302	0.2071
395.4365	0.2181
395.6428	0.2124
395.8491	0.2107
396.0553	0.2082
396.2615	0.2082
396.4678	0.2218
396.674	0.2147
396.8802	0.211
397.0863	0.2056
397.2925	0.2083
397.4987	0.2075
397.7048	0.1988
397.9109	0.2154
398.117	0.2088
398.3231	0.2045
398.5292	0.2041
398.7353	0.2173
398.9413	0.2132
399.1474	0.2109
399.3534	0.2061
399.5594	0.1985
399.7654	0.2084
399.9714	0.2008
400.1774	0.2105
400.3833	0.2013
400.5893	0.2054
400.7952	0.2024
401.0011	0.1997
401.207	0.2027
401.4129	0.1848
401.6188	0.1946
401.8247	0.1964
402.0305	0.2035
402.2364	0.2054
402.4422	0.1977
402.648	0.2004
402.8538	0.1972
403.0596	0.1938
403.2654	0.1933
403.4711	0.1912
403.6768	0.2135
403.8826	0.2023
404.0883	0.2059
404.294	0.2136
404.4997	0.2001
404.7054	0.209
404.911	0.2082
405.1167	0.216
405.3223	0.2019
405.5279	0.1982
405.7335	0.2053
405.9391	0.2062
406.1447	0.2143
406.3502	0.2094
406.5558	0.2025
406.7613	0.1907
406.9668	0.2033
407.1724	0.199
407.3778	0.2073
407.5833	0.2056
407.7888	0.214
407.9942	0.2003
408.1997	0.2164
408.4051	0.2011
408.6105	0.2072
408.8159	0.2141
409.0213	0.1972
409.2267	0.2086
409.432	0.1999
409.6374	0.2089
409.8427	0.2115
410.048	0.1995
410.2533	0.195
410.4586	0.203
410.6639	0.2032
410.8691	0.1886
411.0744	0.1917
411.2796	0.2047
411.4848	0.1849
411.69	0.2021
411.8952	0.1994
412.1004	0.2018
412.3056	0.2131
412.5107	0.2076
412.7158	0.1932
412.921	0.1986
413.1261	0.1903
413.3312	0.2084
413.5362	0.2032
413.7413	0.1904
413.9464	0.2055
414.1514	0.1907
414.3564	0.2061
414.5614	0.2123
414.7664	0.2082
414.9714	0.1912
415.1764	0.1983
415.3813	0.2002
415.5863	0.2009
415.7912	0.1934
415.9961	0.2057
416.201	0.2091
416.4059	0.193
416.6108	0.1891
416.8156	0.204
417.0205	0.1976
417.2253	0.1976
417.4301	0.1968
417.6349	0.1953
417.8397	0.1946
418.0445	0.1917
418.2492	0.1792
418.454	0.1949
418.6587	0.1909
418.8634	0.202
419.0681	0.1876
419.2728	0.1941
419.4775	0.1862
419.6822	0.1856
419.8868	0.1881
420.0915	0.1921
420.2961	0.1922
420.5007	0.1971
420.7053	0.186
420.9099	0.1752
421.1144	0.1835
421.319	0.1835
421.5235	0.1894
421.728	0.1811
421.9325	0.1663
422.137	0.1772
422.3415	0.1932
422.546	0.1848
422.7504	0.1857
422.9549	0.1813
423.1593	0.182
423.3637	0.1821
423.5681	0.174
423.7725	0.1726
423.9769	0.1723
424.1812	0.1734
424.3856	0.169
424.5899	0.1726
424.7942	0.1755
424.9985	0.1713
425.2028	0.1584
425.4071	0.1602
425.6113	0.1769
425.8156	0.1581
426.0198	0.1644
426.224	0.1438
426.4282	0.1619
426.6324	0.1649
426.8366	0.1666
427.0407	0.1631
427.2449	0.1578
427.449	0.1545
427.6531	0.1535
427.8572	0.1379
428.0613	0.1523
428.2654	0.1491
428.4694	0.1545
428.6735	0.1592
428.8775	0.1432
429.0815	0.1471
429.2855	0.1612
429.4895	0.1431
429.6935	0.1403
429.8975	0.1436
430.1014	0.1482
430.3053	0.1284
430.5093	0.1424
430.7132	0.1406
430.9171	0.1351
431.1209	0.1366
431.3248	0.1423
431.5286	0.1368
431.7325	0.1196
431.9363	0.1327
432.1401	0.1314
432.3439	0.125
432.5477	0.124
432.7514	0.1136
432.9552	0.1244
433.1589	0.1253
433.3627	0.1214
433.5664	0.1104
433.7701	0.1246
433.9737	0.1078
434.1774	0.1076
434.3811	0.1071
434.5847	0.1124
434.7883	0.1198
434.9919	0.1074
435.1955	0.0852
435.3991	0.1012
435.6027	0.0987
435.8062	0.098
436.0098	0.1058
436.2133	0.0938
436.4168	0.0987
436.6203	0.0986
436.8238	0.0972
437.0272	0.0826
437.2307	0.0916
437.4341	0.0871
437.6375	0.0862
437.841	0.0896
438.0443	0.0853
438.2477	0.0836
438.4511	0.0874
438.6545	0.0874
438.8578	0.0825
439.0611	0.0823
439.2644	0.0875
439.4677	0.0755
439.671	0.0754
439.8743	0.0862
440.0775	0.0643
440.2808	0.0601
440.484	0.0749
440.6872	0.0576
440.8904	0.0653
441.0936	0.0687
441.2967	0.0628
441.4999	0.0615
441.703	0.0604
441.9062	0.0673
442.1093	0.0643
442.3124	0.0587
442.5155	0.0511
442.7185	0.0515
442.9216	0.0625
443.1246	0.0554
443.3276	0.0599
443.5307	0.0431
443.7337	0.0546
443.9366	0.0592
444.1396	0.048
444.3426	0.0377
444.5455	0.0497
444.7484	0.0391
444.9513	0.0433
445.1542	0.0518
445.3571	0.0448
445.56	0.0389
445.7628	0.0403
445.9657	0.0396
446.1685	0.043
446.3713	0.0348
446.5741	0.0395
446.7769	0.0369
446.9797	0.037
447.1824	0.0291
447.3852	0.0349
447.5879	0.0343
447.7906	0.0374
447.9933	0.0218
448.196	0.0384
448.3986	0.0317
448.6013	0.0206
448.8039	0.0355
449.0066	0.0345
449.2092	0.0265
449.4118	0.0217
449.6143	0.0289
449.8169	0.0194
450.0195	0.0316
450.222	0.0108
450.4245	0.0228
450.627	0.0316
450.8295	0.0181
451.032	0.0289
451.2345	0.0147
451.4369	0.0245
451.6394	0.0198
451.8418	0.0234
452.0442	0.0111
452.2466	0.0205
452.449	0.0202
452.6513	0.0153
452.8537	0.0206
453.056	0.0132
453.2583	0.0206
453.4607	0.0212
453.663	0.0239
453.8652	0.0097
454.0675	0.0137
454.2697	0.024
454.472	0.0172
454.6742	0.0163
454.8764	0.0196
455.0786	0.0195
455.2808	0.0092
455.4829	0.0021
455.6851	0.002
455.8872	0.0021
456.0893	0.0005
456.2915	0.0098
456.4935	0.0002
456.6956	0.0072
456.8977	0.0101
457.0997	0.0042
457.3018	0.0013
457.5038	0.0126
457.7058	-0.0048
457.9078	0.0018
458.1098	-0.0007
458.3117	0.0086
458.5137	0.0074
458.7156	0.0142
458.9175	-0.0044
459.1194	0.0102
459.3213	-0.0001
459.5232	0.007
459.725	-0.0083
459.9269	0.0092
460.1287	0.0078
460.3305	-0.0014
460.5323	0.0104
460.7341	0.0002
460.9359	0.0063
461.1376	-0.0036
461.3394	0.0038
461.5411	0.0071
461.7428	-0.0001
461.9445	-0.0016
462.1462	0.0046
462.3479	-0.0085
462.5495	0.0066
462.7512	0.0021
462.9528	-0.0036
463.1544	-0.0018
463.356	0.004
463.5576	-0.0013
463.7592	-0.007
463.9607	0.0057
464.1623	0.0101
464.3638	0.0015
464.5653	-0.0036
464.7668	0.0061
464.9683	0.0018
465.1697	-0.0029
465.3712	0.003
465.5726	0.0034
465.7741	-0.0046
465.9755	-0.0059
466.1769	-0.0137
466.3782	-0.006
466.5796	-0.0059
466.7809	-0.0044
466.9823	-0.0142
467.1836	0.0059
467.3849	0.0044
467.5862	-0.0065
467.7875	-0.0037
467.9887	0.0048
468.19	-0.0079
468.3912	0.0054
468.5924	-0.0053
468.7936	-0.006
468.9948	0.0045
469.196	-0.0005
469.3972	0.0016
469.5983	0.014
469.7994	-0.0025
470.0006	-0.013
470.2017	-0.0007
470.4027	0.0014
470.6038	-0.0031
470.8049	-0.0095
471.0059	0.0027
471.2069	0.0079
471.408	-0.0008
471.6089	-0.0102
471.8099	-0.0041
472.0109	-0.0099
472.2119	-0.0179
472.4128	0.0001
472.6137	-0.0081
472.8146	-0.0167
473.0155	-0.0105
473.2164	-0.0114
473.4173	-0.0133
473.6181	0.002
473.819	-0.0139
474.0198	-0.0007
474.2206	-0.0084
474.4214	-0.0119
474.6222	-0.0087
474.8229	-0.0146
475.0237	-0.0011
475.2244	-0.0003
475.4251	-0.0039
475.6258	-0.0023
475.8265	-0.0022
476.0272	-0.0079
476.2278	0.0053
476.4285	-0.0117
476.6291	-0.0042
476.8297	-0.009
477.0303	-0.0106
477.2309	-0.0003
477.4315	-0.0006
477.632	-0.0099
477.8326	-0.0044
478.0331	-0.0041
478.2336	-0.0105
478.4341	-0.0158
478.6346	-0.0029
478.8351	-0.0037
479.0355	-0.0031
479.236	-0.0046
479.4364	-0.0084
479.6368	0.0032
479.8372	0.0021
480.0376	-0.0078
480.2379	-0.0107
480.4383	-0.0027
480.6386	-0.0119
480.8389	-0.0066
481.0392	-0.01
481.2395	-0.0085
481.4398	0.0038
481.6401	-0.0094
481.8403	-0.0026
482.0405	-0.0172
482.2408	-0.0033
482.441	-0.0073
482.6411	0.0048
482.8413	-0.0039
483.0415	-0.0115
483.2416	-0.0082
483.4417	-0.0148
483.6419	-0.0001
483.8419	-0.0123
484.042	-0.006
484.2421	-0.0028
484.4422	-0.0019
484.6422	-0.0088
484.8422	-0.0095
485.0422	-0.007
485.2422	-0.0059
485.4422	-0.01
485.6422	-0.0077
485.8421	-0.0093
486.042	0.0028
486.242	-0.007
486.4419	-0.0061
486.6417	-0.0015
486.8416	-0.0027
487.0415	-0.0029
487.2413	-0.0051
487.4411	-0.0037
487.641	-0.0019
487.8408	-0.0037
488.0405	-0.0061
488.2403	-0.0088
488.4401	-0.0099
488.6398	-0.0096
488.8395	-0.0127
489.0392	-0.007
489.2389	-0.0031
489.4386	-0.0057
489.6383	-0.0158
489.8379	-0.0111
490.0376	0.0007
490.2372	-0.0057
490.4368	-0.0107
490.6364	-0.004
490.836	-0.0034
491.0355	-0.0031
491.2351	-0.009
491.4346	-0.0152
491.6341	-0.0049
491.8336	-0.0067
492.0331	-0.0102
492.2326	-0.0032
492.432	-0.0074
492.6315	-0.0078
492.8309	-0.0067
493.0303	-0.0006
493.2297	-0.0086
493.4291	-0.0015
493.6284	0.0022
493.8278	-0.0071
494.0271	-0.0068
494.2264	-0.0049
494.4257	-0.0022
494.625	-0.0028
494.8243	-0.0053
495.0236	-0.0168
495.2228	-0.003
495.422	-0.0109
495.6213	-0.0104
495.8205	-0.0074
496.0196	-0.0104
496.2188	-0.0037
496.418	0.0023
496.6171	-0.0012
496.8162	-0.0062
497.0153	0.0023
497.2144	-0.0053
497.4135	-0.003
497.6126	-0.008
497.8116	0.0023
498.0107	-0.0086
498.2097	-0.0107
498.4087	-0.0073
498.6077	-0.0059
498.8067	-0.0094
499.0056	-0.0008
499.2046	-0.0029
499.4035	-0.0053
499.6024	-0.0076
499.8013	-0.0033
500.0002	-0.0094
500.199	-0.0025
500.3979	-0.0055
500.5967	-0.0163
500.7956	-0.013
500.9944	-0.0135
501.1932	-0.0028
501.3919	-0.0086
501.5907	-0.0063
501.7895	-0.0043
501.9882	-0.0127
502.1869	-0.0127
502.3856	-0.0089
502.5843	-0.019
502.783	-0.0124
502.9816	-0.0077
503.1803	-0.008
503.3789	-0.0006
503.5775	-0.0016
503.7761	-0.008
503.9747	-0.0074
504.1732	-0.0081
504.3718	0.0004
504.5703	-0.0053
504.7689	-0.0023
504.9674	-0.0063
505.1658	-0.0082
505.3643	-0.0062
505.5628	-0.0014
505.7612	-0.0161
505.9597	-0.0125
506.1581	-0.0064
506.3565	-0.0083
506.5549	-0.0078
506.7532	-0.0079
506.9516	-0.0014
507.1499	-0.0022
507.3482	-0.0085
507.5465	-0.0025
507.7448	-0.0027
507.9431	-0.0055
508.1414	-0.0047
508.3396	-0.0062
508.5379	-0.004
508.7361	-0.0059
508.9343	-0.0098
509.1325	-0.0045
509.3306	-0.0058
509.5288	-0.0039
509.7269	-0.0123
509.9251	-0.0063
510.1232	0.0008
510.3213	-0.0095
510.5193	-0.0017
510.7174	-0.0029
510.9154	-0.0062
511.1135	-0.0052
511.3115	-0.0101
511.5095	-0.0049
511.7075	-0.0029
511.9055	-0.011
512.1034	-0.0107
512.3014	-0.0054
512.4993	-0.0096
512.6972	-0.0019
512.8951	-0.0104
513.093	-0.0105
513.2908	-0.0057
513.4887	-0.0003
513.6865	-0.0076
513.8844	-0.0056
514.0822	-0.006
514.2799	-0.0156
514.4777	-0.0063
514.6755	-0.0013
514.8732	-0.0104
515.0709	-0.0093
515.2687	-0.0084
515.4664	-0.0066
515.664	-0.0067
515.8617	-0.0074
516.0594	-0.0065
516.257	-0.0072
516.4546	-0.0142
516.6522	-0.0008
516.8498	-0.0079
517.0474	-0.0019
517.2449	-0.0069
517.4425	-0.0097
517.64	-0.0098
517.8375	-0.007
518.035	0
518.2325	-0.01
518.43	0.0014
518.6274	-0.0115
518.8249	-0.0062
519.0223	-0.0135
519.2197	-0.0094
519.4171	-0.0054
519.6145	-0.0061
519.8118	-0.0128
520.0092	-0.0024
520.2065	-0.0157
520.4038	-0.0063
520.6011	-0.0049
520.7984	-0.0059
520.9956	-0.0108
521.1929	-0.0045
521.3901	-0.0072
521.5874	-0.0045
521.7846	-0.0013
521.9818	-0.0035
522.1789	-0.0043
522.3761	-0.0099
522.5732	-0.0079
522.7704	-0.008
522.9675	0.001
523.1646	-0.0073
523.3617	0.001
523.5587	-0.0089
523.7558	0.001
523.9528	-0.0057
524.1498	-0.0032
524.3468	-0.0014
524.5438	-0.0091
524.7408	-0.0184
524.9378	-0.0045
525.1347	0.0031
525.3316	0.0003
525.5285	-0.011
525.7254	-0.0143
525.9223	-0.0029
526.1192	-0.0034
526.316	-0.0067
526.5129	-0.0036
526.7097	-0.0127
526.9065	-0.0037
527.1033	-0.0044
527.3	-0.0046
527.4968	-0.016
527.6935	0.0022
527.8903	-0.0045
528.087	-0.0144
528.2837	-0.004
528.4804	-0.0093
528.677	-0.0103
528.8737	-0.0112
529.0703	-0.0039
529.2669	-0.0004
529.4635	-0.007
529.6601	-0.0011
529.8567	-0.0099
530.0532	-0.0061
530.2498	-0.0038
530.4463	-0.0026
530.6428	0.001
530.8393	-0.0025
531.0358	-0.0124
531.2322	-0.0089
531.4287	-0.0123
531.6251	-0.0108
531.8215	0.003
532.0179	-0.0085
532.2143	-0.002
532.4107	-0.0019
532.607	-0.0122
532.8034	-0.0099
532.9997	-0.0008
533.196	-0.0091
533.3923	0.0029
533.5886	-0.0082
533.7848	-0.0045
533.9811	0.0003
534.1773	-0.007
534.3735	-0.0024
534.5697	-0.0073
534.7659	-0.0073
534.9621	-0.0077
535.1582	-0.0057
535.3544	-0.0142
535.5505	-0.0072
535.7466	-0.0054
535.9427	0.0038
536.1387	-0.0039
536.3348	0
536.5308	-0.0032
536.7269	-0.0007
536.9229	-0.0032
537.1189	-0.0063
537.3148	-0.0006
537.5108	-0.0002
537.7068	-0.0089
537.9027	-0.0064
538.0986	-0.0056
538.2945	-0.0058
538.4904	-0.0108
538.6863	-0.0054
538.8821	-0.0043
539.078	-0.0139
539.2738	-0.0101
539.4696	-0.0094
539.6654	-0.0097
539.8611	-0.0038
540.0569	-0.0044
540.2526	-0.0083
540.4484	0.0039
540.6441	-0.0034
540.8398	-0.013
541.0355	-0.0045
541.2311	-0.0015
541.4268	-0.0003
541.6224	-0.0007
541.818	-0.0039
542.0136	-0.0021
542.2092	-0.0081
542.4048	-0.007
542.6003	-0.0093
542.7959	-0.001
542.9914	-0.0074
543.1869	-0.0096
543.3824	-0.0094
543.5779	-0.0136
543.7734	-0.0034
543.9688	-0.0141
544.1642	-0.0094
544.3596	-0.0087
544.555	-0.007
544.7504	-0.0077
544.9458	-0.005
545.1411	0.0092
545.3365	-0.0075
545.5318	0.0003
545.7271	-0.0019
545.9224	0.0027
546.1177	-0.0048
546.3129	-0.0021
546.5081	-0.0049
546.7034	-0.0036
546.8986	-0.0016
547.0938	0.0005
547.289	-0.0033
547.4841	-0.0116
547.6793	-0.0062
547.8744	-0.0041
548.0695	-0.0068
548.2646	-0.0067
548.4597	-0.0001
548.6548	0.0008
548.8498	-0.0079
549.0448	0.0042
549.2399	-0.0015
549.4349	-0.0012
549.6298	-0.0046
549.8248	-0.0081
550.0198	-0.0082
550.2147	-0.0005
550.4096	-0.0093
550.6045	-0.0053
550.7994	0.0045
550.9943	-0.0045
551.1892	-0.0067
551.384	-0.0101
551.5788	-0.005
551.7737	-0.0062
551.9685	-0.0095
552.1632	-0.0067
552.358	-0.0046
552.5528	-0.0042
552.7475	-0.0098
552.9422	-0.0044
553.1369	-0.0078
553.3316	-0.0057
553.5263	-0.0089
553.7209	-0.0094
553.9156	-0.0041
554.1102	-0.0103
554.3048	-0.0082
554.4994	-0.0082
554.694	-0.0035
554.8885	-0.0055
555.0831	-0.0059
555.2776	0.0012
555.4721	-0.0121
555.6666	-0.0074
555.8611	-0.0068
556.0555	-0.0105
556.25	-0.0025
556.4444	-0.0042
556.6388	-0.0083
556.8332	-0.004
557.0276	-0.0091
557.222	-0.0045
557.4163	-0.0038
557.6107	-0.0127
557.805	-0.0087
557.9993	-0.004
558.1936	-0.0089
558.3879	0.0025
558.5821	-0.0085
558.7764	-0.008
558.9706	-0.0077
559.1648	-0.0074
559.359	-0.0118
559.5532	-0.0054
559.7473	-0.0044
559.9415	-0.0083
560.1356	-0.0066
560.3297	-0.0118
560.5238	-0.0075
560.7179	-0.0074
560.9119	0.0021
561.106	0.0011
561.3	-0.0023
561.494	-0.007
561.688	-0.002
561.882	-0.0057
562.076	-0.0047
562.2699	-0.0064
562.4639	-0.0072
562.6578	-0.0073
562.8517	-0.0054
563.0456	0.0022
563.2395	-0.0047
563.4333	-0.0075
563.6272	-0.0065
563.821	-0.0045
564.0148	-0.0005
564.2086	-0.0006
564.4024	-0.0046
564.5961	-0.003
564.7899	-0.0031
564.9836	-0.0001
565.1773	-0.0053
565.371	-0.0053
565.5647	-0.001
565.7584	-0.0047
565.952	0.0004
566.1456	-0.0032
566.3393	-0.0057
566.5329	-0.0005
566.7264	-0.0005
566.92	-0.0005
567.1136	-0.0072
567.3071	-0.0011
567.5006	-0.0019
567.6941	0.001
567.8876	-0.0042
568.0811	-0.0051
568.2745	-0.0071
568.468	-0.007
568.6614	-0.0064
568.8548	-0.0125
569.0482	-0.0038
569.2416	0.0006
569.4349	-0.0024
569.6283	-0.0088
569.8216	-0.0101
570.0149	-0.0032
570.2082	-0.0018
570.4015	0.0006
570.5947	0.0001
570.788	-0.0076
570.9812	-0.0075
571.1744	-0.0096
571.3676	-0.0042
571.5608	-0.006
571.754	-0.0054
571.9471	-0.0065
572.1402	-0.0046
572.3333	-0.0008
572.5264	-0.0032
572.7195	-0.0023
572.9126	-0.0017
573.1057	-0.0086
573.2987	-0.0049
573.4917	-0.0063
573.6847	-0.0045
573.8777	-0.009
574.0707	-0.0013
574.2636	-0.0084
574.4566	-0.0071
574.6495	-0.0044
574.8424	-0.004
575.0353	-0.0018
575.2281	-0.0005
575.421	-0.008
575.6138	-0.003
575.8067	-0.0015
575.9995	-0.0064
576.1923	-0.005
576.385	-0.0059
576.5778	-0.001
576.7706	-0.0008
576.9633	-0.0044
577.156	0.0007
577.3487	-0.0016
577.5414	0.0003
577.734	0.0031
577.9267	0.0044
578.1193	-0.0041
578.3119	-0.0021
578.5045	-0.0051
578.6971	-0.0019
578.8897	-0.0079
579.0822	-0.0048
579.2747	0.0036
579.4673	-0.0046
579.6598	-0.0018
579.8522	0.0014
580.0447	-0.0038
580.2372	0.0037
580.4296	0.0034
580.622	0.0014
580.8144	-0.0005
581.0068	-0.0057
581.1992	-0.0004
581.3915	-0.0016
581.5839	-0.0036
581.7762	-0.0042
581.9685	0.0012
582.1608	-0.0044
582.353	0.0029
582.5453	-0.0029
582.7375	-0.0007
582.9298	-0.0062
583.122	0.0023
583.3142	0.0001
583.5063	-0.0017
583.6985	-0.0064
583.8906	-0.0036
584.0827	-0.0009
584.2749	-0.0079
584.4669	-0.0075
584.659	-0.0087
584.8511	-0.0029
585.0431	-0.0003
585.2352	-0.0063
585.4272	-0.0045
585.6192	-0.002
585.8111	-0.0067
586.0031	0.0015
586.195	-0.0099
586.387	-0.0004
586.5789	-0.004
586.7708	-0.0099
586.9627	-0.0058
587.1545	-0.0042
587.3464	-0.0077
587.5382	-0.0053
587.73	-0.0068
587.9218	-0.0019
588.1136	-0.0039
588.3053	-0.0041
588.4971	-0.0115
588.6888	-0.0052
588.8805	-0.0043
589.0722	-0.0018
589.2639	0.0001
589.4556	-0.0028
589.6472	-0.0032
589.8389	-0.0026
590.0305	-0.0038
590.2221	-0.0022
590.4137	-0.0043
590.6052	-0.0024
590.7968	-0.0064
590.9883	-0.0025
591.1798	-0.0091
591.3713	0.0007
591.5628	-0.0018
591.7543	-0.004
591.9458	-0.0032
592.1372	-0.0012
592.3286	-0.0032
592.52	-0.0064
592.7114	0.0006
592.9028	-0.0047
593.0941	-0.0008
593.2855	-0.0039
593.4768	0.0015
593.6681	0.0012
593.8594	0.0057
594.0506	-0
594.2419	0.0064
594.4331	-0.0037
594.6244	-0.0014
594.8156	-0.0048
595.0067	-0.0023
595.1979	-0.0035
595.3891	-0.0056
595.5802	-0.0104
595.7713	-0.0085
595.9624	-0.0018
596.1535	0.0053
596.3446	-0.0011
596.5357	-0.0027
596.7267	-0.0024
596.9177	0.0021
597.1087	-0.0062
597.2997	-0.0023
597.4907	-0.0025
597.6817	-0.0027
597.8726	-0.004
598.0635	-0.0026
598.2544	-0.0049
598.4453	-0.0057
598.6362	-0.0074
598.827	-0.0095
599.0179	-0.0017
599.2087	-0.0108
599.3995	-0.0088
599.5903	-0.0023
599.7811	-0.0032
599.9718	-0.0013
600.1626	-0.0005
600.3533	-0.0017
600.544	-0.0028
600.7347	0.0035
600.9254	-0.0018
601.116	-0.0052
601.3067	-0.004
601.4973	-0.0083
601.6879	-0.003
601.8785	-0.0087
602.0691	0.0011
602.2596	-0.0041
602.4502	-0.0081
602.6407	-0.0018
602.8312	-0.0027
603.0217	-0.0066
603.2122	0.0004
603.4027	-0.0001
603.5931	-0.005
603.7835	-0.0012
603.9739	-0.0055
604.1643	-0.0024
604.3547	-0.0027
604.5451	-0.0019
604.7354	-0.0017
604.9257	-0.0055
605.116	-0.0035
605.3063	-0.0015
605.4966	-0.0034
605.6869	-0.0037
605.8771	-0.004
606.0673	-0.0022
606.2575	-0.0054
606.4477	-0.0051
606.6379	-0.0093
606.8281	-0.0114
607.0182	-0.0104
607.2083	-0.0034
607.3985	-0.0099
607.5885	-0.0025
607.7786	-0.0045
607.9687	-0.0026
608.1587	-0.0068
608.3488	-0.0035
608.5388	0.0012
608.7288	-0.0038
608.9187	0.0007
609.1087	-0.0091
609.2986	-0.0038
609.4886	-0.0051
609.6785	-0.0035
609.8684	-0.003
610.0582	0.001
610.2481	-0.0029
610.4379	0.0005
610.6278	-0.0011
610.8176	0.0036
611.0074	-0.0037
611.1971	0
611.3869	-0.0076
611.5766	0.0031
611.7664	0
611.9561	-0.0023
612.1458	0.0044
612.3354	-0.0036
612.5251	-0.0063
612.7147	-0.0026
612.9044	-0.0013
613.094	0.0014
613.2836	-0.0063
613.4731	-0.0054
613.6627	-0.0068
613.8522	0.001
614.0417	-0.003
614.2313	-0.0064
614.4207	-0.0046
614.6102	-0.0027
614.7997	-0.004
614.9891	-0.0011
615.1785	-0.0041
615.3679	-0.0017
615.5573	-0.0024
615.7467	-0.0014
615.9361	-0.0024
616.1254	-0.0054
616.3147	-0.0056
616.504	0.0007
616.6933	-0.003
616.8826	-0.0021
617.0718	-0.0041
617.2611	0.0011
617.4503	0.0002
617.6395	-0.0013
617.8287	-0.0007
618.0179	0.0058
618.207	-0.0061
618.3961	-0.0019
618.5853	-0.0045
618.7744	-0.0061
618.9634	0.0017
619.1525	-0.0051
619.3416	-0.0086
619.5306	-0.0024
619.7196	-0.0042
619.9086	-0.0053
620.0976	-0.0059
620.2866	0.0023
620.4755	-0.0084
620.6645	-0.0022
620.8534	0.0025
621.0423	-0.0095
621.2312	-0.0043
621.42	0.002
621.6089	0.0004
621.7977	-0.0032
621.9865	-0.0037
622.1753	0.0022
622.3641	-0.004
622.5529	0.0013
622.7416	-0.0064
622.9303	0.005
623.1191	-0.0035
623.3078	0.0009
623.4964	0.0007
623.6851	-0.0015
623.8737	0.0007
624.0624	0.0012
624.251	-0.0029
624.4396	-0.0011
624.6282	-0.0051
624.8167	0.0033
625.0053	-0.0004
625.1938	-0.0009
625.3823	0.0011
625.5708	0.0004
625.7593	-0.0059
625.9477	-0.0094
626.1362	-0.0046
626.3246	-0.0044
626.513	-0.0039
626.7014	-0.003
626.8898	-0.0033
627.0781	-0.004
627.2665	-0.0002
627.4548	-0.01
627.6431	0.0034
627.8314	-0.0033
628.0197	-0.001
628.2079	0.001
628.3962	0.0039
628.5844	0.0009
628.7726	-0.0032
628.9608	0.0003
629.1489	-0.0008
629.3371	0.0007
629.5252	0.0047
629.7134	-0.0033
629.9015	-0.0004
630.0895	-0.0017
630.2776	-0.0017
630.4657	0.0005
630.6537	-0.0022
630.8417	0.0001
631.0297	-0.0035
631.2177	-0.0011
631.4057	0.0008
631.5936	0.0001
631.7815	-0.0068
631.9695	-0.0022
632.1574	-0.0085
632.3452	-0.0015
632.5331	-0.0044
632.7209	-0.0023
632.9088	-0.0078
633.0966	-0.0006
633.2844	-0.0069
633.4722	-0.0008
633.6599	-0.0028
633.8477	-0.0068
634.0354	-0.0105
634.2231	-0.0071
634.4108	-0.0015
634.5985	-0.0043
634.7861	-0.0022
634.9738	-0.0077
635.1614	-0.0066
635.349	-0.0041
635.5366	-0.0004
635.7242	-0.0034
635.9117	0.0012
636.0993	-0.0022
636.2868	-0.0011
636.4743	-0.0009
636.6618	-0.0058
636.8492	-0.0044
637.0367	-0.0041
637.2241	-0.0047
637.4115	-0.0069
637.5989	0.003
637.7863	-0.0014
637.9737	-0.006
638.161	-0.0029
638.3484	-0.0014
638.5357	0.0001
638.723	-0.001
638.9103	-0.0002
639.0975	0.003
639.2848	-0.0008
639.472	0.0031
639.6592	0.0024
639.8464	0.0021
640.0336	-0.0055
640.2208	0.0035
640.4079	-0.0045
640.595	-0.001
640.7821	0.0014
640.9692	0.0037
641.1563	0.0038
641.3434	0.0014
641.5304	0.0002
641.7174	0.0027
641.9044	0.0077
642.0914	-0.001
642.2784	0.0017
642.4653	0.0059
642.6523	0.0001
642.8392	0.0034
643.0261	0.0052
643.213	-0.0003
643.3999	-0.0031
643.5867	0
643.7735	-0.0035
643.9604	-0.0018
644.1472	-0.0019
644.3339	-0.0014
644.5207	-0.0068
644.7075	-0.0043
644.8942	-0.0036
645.0809	-0.0048
645.2676	-0.0069
645.4543	0.0048
645.6409	-0.0001
645.8276	-0.0044
646.0142	-0.0039
646.2008	-0.0043
646.3874	-0.002
646.574	-0.0072
646.7605	0.0011
646.9471	-0.0061
647.1336	-0.006
647.3201	-0.0114
647.5066	0.0006
647.6931	0.0004
647.8795	-0.005
648.0659	-0.0055
648.2524	-0.005
648.4388	-0.0028
648.6252	-0.0046
648.8115	-0.009
648.9979	-0.0062
649.1842	-0.0096
649.3705	-0.0029
649.5568	-0.0034
649.7431	-0.0052
649.9294	-0.0018
650.1156	-0.009
650.3018	-0.0057
650.488	-0.0086
650.6742	-0.0039
650.8604	0.0006
651.0466	0.0036
651.2327	-0.0024
651.4188	-0.0019
651.6049	0.0001
651.791	-0.0007
651.9771	-0.0004
652.1632	0.0001
652.3492	-0.0011
652.5352	0
652.7212	0.0019
652.9072	-0.0012
653.0932	0.0008
653.2791	-0.0061
653.465	-0.0036
653.651	-0.0033
653.8369	-0.0033
654.0227	0.0007
654.2086	0.0003
654.3944	-0.0091
654.5803	-0.0064
654.7661	-0.0071
654.9519	0.0008
655.1377	-0.0038
655.3234	-0.0001
655.5092	-0.0001
655.6949	-0.0001
655.8806	-0.0001
656.0663	-0.0001
656.2519	-0.0001
656.4376	-0.0048
656.6232	-0.0045
656.8088	-0.0036
656.9945	-0.0051
657.18	0.0025
657.3656	-0.0019
657.5511	-0.0045
657.7367	-0.006
657.9222	-0.0027
658.1077	-0.0042
658.2932	-0.0046
658.4786	-0.0017
658.6641	-0.0033
658.8495	-0.0031
659.0349	-0.0051
659.2203	-0.0103
659.4057	-0.0088
659.591	-0.0073
659.7764	-0.0041
659.9617	-0.0051
660.147	-0.0007
660.3323	-0.0031
660.5176	-0.0067
660.7028	-0.0071
660.888	-0.0029
661.0733	-0.0021
661.2585	-0.0097
661.4436	-0.002
661.6288	-0.0072
661.8139	0.006
661.9991	-0.0027
662.1842	-0.0007
662.3693	-0.0062
662.5544	-0.0021
662.7394	-0.003
662.9245	-0.0002
663.1095	0.0055
663.2945	-0.0057
663.4795	-0.0029
663.6644	-0.0049
663.8494	-0.0056
664.0343	-0.0042
664.2193	-0.0067
664.4042	-0.0091
664.589	-0.0025
664.7739	-0.007
664.9587	-0.0037
665.1436	0.0002
665.3284	-0.0054
665.5132	-0.0013
665.698	0.0031
665.8827	-0.0037
666.0675	-0.0063
666.2522	-0.0085
666.4369	-0.0107
666.6216	-0.0138
666.8063	-0.0068
666.9909	-0.0119
667.1756	-0.0066
667.3602	-0.0082
667.5448	-0.0078
667.7294	-0.0027
667.9139	-0.0058
668.0985	-0.0108
668.283	-0.0078
668.4675	-0.0105
668.652	-0.0092
668.8365	-0.011
669.0209	-0.0112
669.2054	-0.0025
669.3898	-0.0017
669.5742	-0.0101
669.7586	-0.0025
669.943	-0.0033
670.1273	-0.0104
670.3117	-0.0053
670.496	-0.0051
670.6803	-0.0011
670.8646	-0.0043
671.0488	-0.0022
671.2331	-0.0046
671.4173	-0.0003
671.6015	-0.0001
671.7857	-0.007
671.9699	-0.0047
672.1541	-0.0093
672.3382	-0.0068
672.5223	-0.0044
672.7064	-0.0075
672.8905	-0.0136
673.0746	-0.0147
673.2587	-0.0178
673.4427	-0.0125
673.6267	-0.0097
673.8107	-0.0103
673.9947	-0.0091
674.1787	-0.0074
674.3626	-0.0095
674.5465	-0.0069
674.7304	0.0023
674.9143	-0.0023
675.0982	-0.0003
675.2821	-0.0048
675.4659	-0.0035
675.6497	-0.0016
675.8335	-0.0026
676.0173	-0.0106
676.2011	-0.0067
676.3849	-0.0033
676.5686	0.0034
676.7523	-0.0038
676.936	-0.0003
677.1197	-0.0067
677.3034	-0.0035
677.487	-0.0071
677.6706	-0.0072
677.8542	-0.0001
678.0378	-0.0076
678.2214	-0.009
678.405	-0.0021
678.5885	-0.0059
678.772	-0.0033
678.9555	-0.0075
679.139	-0.0071
679.3225	-0.0098
679.5059	-0.0066
679.6894	-0.003
679.8728	-0.0013
680.0562	0.0016
680.2395	-0.0059
680.4229	0.0008
680.6062	0.0024
680.7896	-0.0014
680.9729	-0.0034
681.1562	-0.0006
681.3394	0.0003
681.5227	-0.0018
681.7059	-0.0044
681.8891	-0.0031
682.0723	-0.0053
682.2555	-0.005
682.4387	-0.0036
682.6218	-0.0107
682.805	-0.0042
682.9881	-0.0076
683.1712	-0.0002
683.3542	-0.0012
683.5373	-0.0046
683.7203	-0.005
683.9034	-0.0014
684.0864	-0.0055
684.2694	-0.0052
684.4523	-0.0007
684.6353	-0.003
684.8182	-0.0032
685.0011	-0.005
685.184	-0.0018
685.3669	-0.005
685.5498	-0.0019
685.7326	-0.0031
685.9154	-0.0051
686.0982	-0.0059
686.281	-0.0107
686.4638	-0.0043
686.6465	-0.0056
686.8293	-0.0026
687.012	-0.0037
687.1947	-0.0087
687.3774	-0.0001
687.56	-0.0089
687.7427	-0.0014
687.9253	0.0007
688.1079	0.004
688.2905	-0.0019
688.4731	-0.0034
688.6556	-0.0071
688.8382	-0.0031
689.0207	0.0011
689.2032	0.0009
689.3857	-0.0042
689.5681	0.0015
689.7506	0.0008
689.933	-0.0003
690.1154	0.0002
690.2978	-0.0027
690.4802	-0.003
690.6626	0.0078
690.8449	0.0015
691.0272	0.0048
691.2095	-0.0049
691.3918	0
691.5741	-0.0044
691.7563	0.0016
691.9386	-0.0043
692.1208	-0.0042
692.303	-0.0089
692.4852	-0.0075
692.6673	-0.0058
692.8495	-0.0049
693.0316	-0.0061
693.2137	-0.0061
693.3958	-0.0051
693.5778	-0.0029
693.7599	-0.0082
693.9419	-0.0116
694.1239	-0.0059
694.3059	-0.0104
694.4879	-0.0025
694.6699	-0.008
694.8518	-0.0079
695.0337	-0.0061
695.2157	-0.004
695.3975	-0.0065
695.5794	-0.007
695.7613	-0.0062
695.9431	-0.0053
696.1249	-0.0072
696.3067	-0.0065
696.4885	-0.0031
696.6703	-0.0035
696.852	-0.0045
697.0337	-0.003
697.2154	-0.0027
697.3971	-0.0073
697.5788	-0.0024
697.7605	-0.0031
697.9421	-0.0085
698.1237	-0.0041
698.3053	-0.005
698.4869	-0.0014
698.6685	-0.0019
698.85	-0.0058
699.0315	-0.0003
699.213	-0.002
699.3945	-0.0005
699.576	0.0055
699.7575	-0.0052
699.9389	-0.0041
700.1203	-0.0058
700.3017	-0.0099
700.4831	0.0021
700.6645	-0.012
700.8458	-0.0017
701.0271	0.0006
701.2084	-0.0107
701.3897	-0.0046
701.571	-0.0015
701.7523	0.0014
701.9335	0.0011
702.1147	0.0063
702.2959	-0.009
702.4771	-0.0002
702.6583	-0.0007
702.8394	0.0024
703.0205	-0.0033
703.2016	-0.0004
703.3827	-0.0009
703.5638	-0.0122
703.7449	-0.0073
703.9259	-0.0016
704.1069	-0.003
704.2879	-0.0027
704.4689	-0.007
704.6499	-0.0075
704.8308	-0.0033
705.0117	0.0007
705.1927	-0.0075
705.3735	0.0013
705.5544	0.0017
705.7353	0.0032
705.9161	0.0011
706.0969	0.001
706.2777	-0.0047
706.4585	-0.0023
706.6393	-0.0043
706.82	-0.002
707.0007	-0.0053
707.1815	-0.0047
707.3621	-0.0054
707.5428	-0.0025
707.7235	-0.0042
707.9041	0.0018
708.0847	-0.0024
708.2653	-0.0009
708.4459	-0.0083
708.6265	-0.007
708.807	-0.0035
708.9875	-0.0002
709.168	-0.0046
709.3485	-0.0051
709.529	-0.0054
709.7095	-0.0029
709.8899	-0.007
710.0703	0.0057
710.2507	-0.0043
710.4311	-0.0024
710.6115	0.0034
710.7918	-0.004
710.9721	0.001
711.1524	0.0053
711.3327	0.0013
711.513	-0.007
711.6932	-0.0048
711.8735	-0.0014
712.0537	-0.003
712.2339	-0.0056
712.4141	-0.0008
712.5942	0.0008
712.7744	0.001
712.9545	-0.0006
713.1346	0.0014
713.3147	0.0074
713.4947	-0.0004
713.6748	-0.0051
713.8548	-0.0053
714.0348	-0.0065
714.2148	-0.0076
714.3948	-0.0056
714.5748	-0.0079
714.7547	-0.0043
714.9346	-0.0043
715.1145	-0.0041
715.2944	0.002
715.4743	-0.0054
715.6541	-0.0051
715.834	-0.0019
716.0138	0.0038
716.1936	-0.0005
716.3733	-0.008
716.5531	-0.007
716.7328	-0.0055
716.9126	-0.0009
717.0923	0.0009
717.2719	-0.008
717.4516	-0.0024
717.6312	0.0043
717.8109	0.0009
717.9905	-0.0107
718.1701	-0.0017
718.3496	-0.0072
718.5292	-0.0098
718.7087	-0.0064
718.8882	-0.0046
719.0677	-0.0047
719.2472	-0.0021
719.4267	-0.0099
719.6061	-0.0071
719.7856	-0.0033
719.965	-0.0089
720.1443	-0.0073
720.3237	-0.007
720.5031	-0.0135
720.6824	-0.0097
720.8617	-0.0113
721.041	-0.0056
721.2203	-0.0114
721.3995	-0.0036
721.5788	-0.0109
721.758	-0.0023
721.9372	-0.0031
722.1164	-0.0023
722.2956	-0.0097
722.4747	-0.0088
722.6538	-0.003
722.8329	-0.0014
723.012	-0.0041
723.1911	-0.0036
723.3702	-0.0017
723.5492	-0.0007
723.7282	-0.0013
723.9072	-0.0032
724.0862	-0.0016
724.2652	-0.0034
724.4441	-0.0084
724.623	-0.002
724.8019	-0.0075
724.9808	-0.0002
725.1597	-0.0028
725.3385	0.004
725.5174	0.0013
725.6962	-0.0139
725.875	0.002
726.0538	0.0037
726.2325	-0.0001
726.4112	-0.0018
726.59	-0.0015
726.7687	-0.0004
726.9474	-0.0053
727.126	-0.0011
727.3047	-0.0053
727.4833	0.0014
727.6619	-0.0103
727.8405	0.0009
728.0191	0.0015
728.1976	-0.0078
728.3762	-0.009
728.5547	-0.0115
728.7332	-0.0045
728.9116	-0.0152
729.0901	-0.0123
729.2686	-0.0117
729.447	-0.0029
729.6254	-0.0076
729.8038	-0.0074
729.9821	-0.0016
730.1605	-0.0043
730.3388	0.0015
730.5171	-0.0029
730.6954	-0.0048
730.8737	-0.0005
731.0519	-0.0034
731.2302	-0.0013
731.4084	0.0053
731.5866	0.0016
731.7648	0.0014
731.9429	-0.0011
732.1211	0.006
732.2992	0.005
732.4773	-0.0022
732.6554	-0.0036
732.8335	-0.0051
733.0115	-0.0046
733.1896	-0.0087
733.3676	-0.0028
733.5456	-0.0079
733.7235	-0.0038
733.9015	0.0004
734.0794	-0.0042
734.2574	-0.0046
734.4353	-0.0028
734.6131	0.0005
734.791	-0.0038
734.9689	-0.0053
735.1467	-0.0029
735.3245	0.0004
735.5023	-0.0015
735.68	0.0007
735.8578	-0.0045
736.0355	0.0064
736.2132	-0.0058
736.3909	-0.0012
736.5686	-0.0006
736.7463	-0.0028
736.9239	-0.0049
737.1015	-0.0058
737.2791	-0.0116
737.4567	-0.0135
737.6343	-0.0028
737.8118	-0.0049
737.9894	-0.0019
738.1669	-0.0045
738.3444	-0.0038
738.5218	-0.0002
738.6993	-0.0038
738.8767	0
739.0541	-0.0065
739.2315	-0.0063
739.4089	-0.0032
739.5863	-0.0086
739.7636	-0.0086
739.9409	-0.0062
740.1182	0.0021
740.2955	0.0019
740.4728	0.0003
740.65	0.0033
740.8272	0.0025
741.0044	-0.0055
741.1816	0.001
741.3588	0.0075
741.5359	0.0007
741.7131	0.0012
741.8902	-0.0033
742.0673	0.0056
742.2444	-0.0053
742.4214	-0.0016
742.5985	-0.0086
742.7755	-0.0039
742.9525	-0.0018
743.1295	-0.0046
743.3064	-0.0089
743.4834	-0.0025
743.6603	-0.0035
743.8372	0.0004
744.0141	-0.0041
744.191	-0.0006
744.3678	-0.0015
744.5446	0.0031
744.7215	-0.0055
744.8982	-0.0016
745.075	-0.0054
745.2518	-0.0005
745.4285	-0.0021
745.6052	0.0051
745.7819	-0.0031
745.9586	0.0003
746.1353	-0.0057
746.3119	0.0047
746.4885	0.0017
746.6651	-0.0058
746.8417	-0.0072
747.0183	-0.0098
747.1948	-0.007
747.3714	-0.0047
747.5479	-0.0043
747.7244	-0.0085
747.9008	0.0011
748.0773	0.0082
748.2537	0.0017
748.4301	-0.0013
748.6065	-0.0019
748.7829	0.0031
748.9593	0.0018
749.1356	-0.0042
749.3119	-0.0003
749.4882	0.0025
749.6645	-0.0072
749.8408	-0.0045
750.017	-0.0035
750.1933	-0.0021
750.3695	-0.0079
750.5457	-0.0105
750.7218	-0.0112
750.898	-0.0039
751.0741	-0.0081
751.2502	-0.0009
751.4263	-0.0041
751.6024	-0.003
751.7784	-0.0004
751.9545	0.0005
752.1305	0.0017
752.3065	-0.0077
752.4825	-0.0035
752.6584	-0.0035
752.8344	-0.0014
753.0103	-0.0012
753.1862	-0.0019
753.3621	-0.0049
753.5379	-0.0023
753.7138	-0.0022
753.8896	-0.0147
754.0654	-0.0131
754.2412	-0.0119
754.417	-0.0064
754.5927	-0.009
754.7685	-0.0135
754.9442	-0.01
755.1199	-0.0107
755.2956	-0.0033
755.4712	-0.0018
755.6469	-0.0121
755.8225	-0.011
755.9981	-0.002
756.1736	-0.0052
756.3492	-0.0166
756.5248	0.0033
756.7003	-0.0021
756.8758	-0.0093
757.0513	-0.0092
757.2267	-0.0121
757.4022	-0.0108
757.5776	-0.0115
757.753	-0.0165
757.9284	-0.0116
758.1038	-0.0108
758.2791	-0.0078
758.4545	-0.0102
758.6298	-0.004
758.8051	-0.0085
758.9803	-0.0097
759.1556	-0.007
759.3308	-0.0076
759.506	-0.0103
759.6812	-0.0087
759.8564	-0.002
760.0316	-0.01
760.2067	-0.0088
760.3819	-0.006
760.557	-0.0066
760.732	-0.0127
760.9071	-0.0089
761.0821	-0.0124
761.2572	-0.0135
761.4322	-0.0128
761.6072	-0.0111
761.7821	-0.0095
761.9571	-0.0146
762.132	-0.009
762.3069	-0.0052
762.4818	-0.0061
762.6567	-0.0144
762.8316	0.0015
763.0064	-0.0002
763.1812	-0.0015
763.356	0.0014
763.5308	-0.0033
763.7055	0.0022
763.8803	-0.0059
764.055	-0.0057
764.2297	-0.0001
764.4044	-0.0024
764.579	0.0004
764.7537	0.0031
764.9283	-0.0027
765.1029	0.0065
765.2775	-0.0027
765.4521	0.0063
765.6266	0.0017
765.8011	0.0035
765.9756	-0.0042
766.1501	0.0017
766.3246	-0.0051
766.4991	-0.0007
766.6735	-0.0056
766.8479	-0.0039
767.0223	0.0061
767.1967	0.001
767.371	-0.0002
767.5454	0.0042
767.7197	-0.0049
767.894	0.0022
768.0683	0.0015
768.2425	-0.0055
768.4168	-0.0062
768.591	0.0032
768.7652	-0.0059
768.9394	0.0024
769.1135	0.0025
769.2877	-0.003
769.4618	0.0085
769.6359	0.0034
769.81	-0.0007
769.984	-0.0059
770.1581	0.0071
770.3321	0.0015
770.5061	-0.0023
770.6801	0.0032
770.8541	-0.0001
771.028	0.0047
771.202	0.0042
771.3759	-0.0062
771.5498	0.0007
771.7236	0.0017
771.8975	0.003
772.0713	-0.0027
772.2451	0.0012
772.4189	0.0009
772.5927	-0.0063
772.7665	0.003
772.9402	0.0043
773.1139	0.0061
773.2876	-0.0044
773.4613	-0.0102
773.635	-0.0016
773.8086	0.0007
773.9822	0.0009
774.1558	-0.005
774.3294	0.0017
774.503	0.0014
774.6765	-0.0021
774.8501	-0.0003
775.0236	-0.0175
775.1971	-0.0081
775.3705	-0.002
775.544	-0.004
775.7174	0.0013
775.8908	-0.0037
776.0642	-0.0017
776.2376	-0.0109
776.4109	-0.0084
776.5843	0.0007
776.7576	-0.0039
776.9309	-0.0021
777.1041	-0.0045
777.2774	0.0001
777.4506	-0.0017
777.6238	0.0022
777.797	-0.0024
777.9702	-0.0073
778.1434	-0.0085
778.3165	0.0015
778.4896	-0.0163
778.6627	-0.0048
778.8358	-0.0036
779.0089	0.0003
779.1819	-0.0019
779.3549	-0.0094
779.5279	-0.003
779.7009	-0.0049
779.8739	-0.0011
780.0468	-0.0063
780.2197	-0.0051
780.3926	-0.0049
780.5655	-0.0013
780.7384	0.0019
780.9112	-0.0068
781.0841	-0.0096
781.2569	0.0033
781.4297	-0.0081
781.6024	-0.0048
781.7752	-0.0065
781.9479	-0.0065
782.1206	-0.0057
782.2933	-0.0077
782.466	0.0016
782.6386	0.0014
782.8113	-0.0085
782.9839	-0.009
783.1565	-0.0073
783.329	-0.0035
783.5016	-0.0043
783.6741	-0.0066
783.8466	-0.0072
784.0191	-0.0074
784.1916	-0.0016
784.3641	-0.0047
784.5365	0.0025
784.7089	-0.0013
784.8813	0.0035
785.0537	0.0028
785.2261	0.0009
785.3984	-0.0064
785.5707	-0.0003
785.743	0.0047
785.9153	0.0034
786.0876	-0.0011
786.2598	0.0071
786.432	0.0125
786.6042	-0.001
786.7764	0.0033
786.9486	0.0051
787.1207	-0.0046
787.2928	-0.0022
787.4649	-0.0068
787.637	-0.007
787.8091	0.0001
787.9811	-0.0006
788.1532	0.0034
788.3252	0.0055
788.4972	-0.0033
788.6691	0.0005
788.8411	0.0032
789.013	-0.0047
789.1849	0.0002
789.3568	-0.0088
789.5287	-0.0076
789.7005	-0.0021
789.8723	-0.0054
790.0442	-0.0101
790.2159	-0.0018
790.3877	-0.0152
790.5595	-0.0022
790.7312	0.0025
790.9029	-0.003
791.0746	-0.0034
791.2463	-0.0024
791.4179	-0.0079
791.5896	0.0073
791.7612	0.0041
791.9328	0.002
792.1044	-0.0002
792.2759	0.0093
792.4474	-0.0028
792.619	-0.0075
792.7905	-0.0051
792.9619	-0.0031
793.1334	-0.0067
793.3048	-0.015
793.4762	0.005
793.6476	-0.0201
793.819	-0.0079
793.9904	-0.016
794.1617	-0.0144
794.333	-0.0118
794.5043	-0.0056
794.6756	-0.0007
794.8469	0.0051
795.0181	-0.0082
795.1893	-0.0048
795.3605	-0.0062
795.5317	-0.013
795.7029	-0.007
795.874	-0.0142
796.0452	-0.0062
796.2163	-0.0103
796.3873	-0.0101
796.5584	-0.0114
796.7294	-0.0158
796.9005	-0.0217
797.0715	-0.0104
797.2425	-0.0167
797.4134	-0.0102
797.5844	-0.0126
797.7553	-0.0201
797.9262	-0.0105
798.0971	-0.0221
798.2679	-0.0176
798.4388	-0.0105
798.6096	-0.0092
798.7804	-0.0184
798.9512	-0.0128
799.122	-0.0087
799.2927	-0.0073
799.4635	-0.006
799.6342	-0.009
799.8049	-0.0099
799.9755	-0.0153
800.1462	-0.0221
800.3168	-0.0101
800.4874	-0.0167
800.658	-0.0152
800.8286	-0.0152
800.9991	-0.0179
801.1696	-0.0061
801.3402	-0.0184
801.5106	-0.0249
801.6811	-0.025
801.8516	-0.0144
802.022	-0.0275
802.1924	-0.0271
802.3628	-0.0167
802.5332	-0.0136
802.7035	-0.0248
802.8739	-0.0158
803.0442	-0.0152
803.2145	-0.0156
803.3847	-0.0183
803.555	-0.0199
803.7252	-0.0089
803.8954	-0.0127
804.0656	-0.0085
804.2358	-0.024
804.4059	-0.0068
804.5761	-0.0049
804.7462	-0.008
804.9163	-0.0111
805.0864	-0.015
805.2564	-0.0137
805.4264	-0.0179
805.5965	-0.0099
805.7665	-0.0175
805.9364	-0.0054
806.1064	-0.0125
806.2763	-0.0084
806.4462	-0.0141
806.6161	-0.0065
806.786	-0.0137
806.9559	-0.0083
807.1257	-0.0136
807.2955	-0.0097
807.4653	-0.0118
807.6351	-0.0083
807.8048	-0.004
807.9746	-0.0042
808.1443	-0.0012
808.314	0.003
808.4837	0.004
808.6533	-0.0023
808.8229	-0.0043
808.9926	0.0011
809.1622	-0.0015
809.3317	0.0115
809.5013	0.0041
809.6708	0.0005
809.8403	-0.0117
810.0098	0.0131
810.1793	-0.0053
810.3488	0.0129
810.5182	-0.0125
810.6876	-0.0039
810.857	-0.0056
811.0264	-0.0181
811.1958	0.0074
811.3651	-0.0051
811.5344	-0.01
811.7037	-0.0034
811.873	-0.0121
812.0422	-0.0098
812.2115	-0.0026
812.3807	-0.003
812.5499	-0.0046
812.7191	-0.0195
812.8882	-0.008
813.0574	-0.0036
813.2265	0.0009
813.3956	-0.0066
813.5646	0.0006
813.7337	-0.0073
813.9027	0.0009
814.0718	-0.0081
814.2407	0.0087
814.4097	0.0011
814.5787	-0.0062
814.7476	-0.0037
814.9165	0.0015
815.0854	-0.0057
815.2543	0.0056
815.4232	-0.0018
815.592	0.0016
815.7608	-0.009
815.9296	0.0035
816.0984	0.0004
816.2671	0.0081
816.4359	-0.0094
816.6046	0.0109
816.7733	0.0054
816.942	0.0067
817.1106	-0.0042
817.2793	-0.0016
817.4479	-0.0133
817.6165	-0.0127
817.785	-0.0057
817.9536	-0.0034
818.1221	-0.0021
818.2906	-0.0085
818.4591	-0.0157
818.6276	0.0032
818.7961	-0.0115
818.9645	-0.0106
819.1329	-0.0192
819.3013	-0.0056
819.4697	-0.0065
819.638	-0.015
819.8064	-0.011
819.9747	0.01
820.143	-0.0068
820.3113	-0.0088
820.4795	0.0063
820.6477	-0.0081
820.816	-0.0039
820.9842	-0.0111
821.1523	-0.0259
821.3205	-0.0118
821.4886	-0.0049
821.6567	-0.0056
821.8248	-0.0233
821.9929	-0.0013
822.1609	-0.0035
822.329	-0.0041
822.497	0.0008
822.665	-0.0173
822.833	-0.027
823.0009	-0.0023
823.1688	-0.0179
823.3367	0.0014
823.5046	-0.0014
823.6725	-0.0193
823.8404	0.0022
824.0082	-0.0092
824.176	-0.0034
824.3438	-0.0036
824.5116	0.0111
824.6793	0.0007
824.847	-0.0135
825.0147	-0.0081
825.1824	-0.0285
825.3501	0.0006
825.5177	-0.0143
825.6854	0.0013
825.853	-0.0015
826.0206	0.0196
826.1881	-0.0018
826.3557	0.0015
826.5232	-0.0071
826.6907	-0.0059
826.8582	0.0071
827.0257	-0.0073
827.1931	0.0112
827.3605	-0.0009
827.528	-0.0057
827.6953	0.0024
827.8627	-0.0092
828.03	-0.0127
828.1974	-0.0039
828.3647	0.003
828.532	-0.0057
828.6992	-0.0197
828.8665	-0.0107
829.0337	-0.0078
829.2009	-0.003
829.3681	-0.0198
829.5352	0.0077
829.7024	-0.0103
829.8695	-0.0241
830.0366	-0.017
830.2037	-0.0008
830.3707	-0.0146
830.5378	-0.0201
830.7048	-0.0293
830.8718	-0.003
831.0388	-0.0172
831.2057	-0.0125
831.3727	-0.0221
831.5396	-0.0046
831.7065	0.006
831.8734	-0.0078
832.0402	0.001
832.2071	0.0084
832.3739	0.0003
832.5407	-0.0174
832.7075	-0.0174
832.8742	0.0005
833.041	0.0029
833.2077	-0.0164
833.3744	-0.0069
833.541	-0.0018
833.7077	-0.0113
833.8743	0.0104
834.0409	-0.0051
834.2075	0.0031
834.3741	-0.0166
834.5407	-0.0012
834.7072	-0.0081
834.8737	-0.0061
835.0402	-0.023
835.2067	-0.0096
835.3731	-0.0058
835.5395	-0.0068
835.706	-0.0105
835.8723	-0.019
836.0387	-0.0294
836.2051	0.0008
836.3714	0.0246
836.5377	0.012
836.704	-0.0008
836.8703	-0.0171
837.0365	-0.0152
837.2027	-0.0131
837.3689	-0.0011
837.5351	-0.0107
837.7013	-0.0181
837.8674	0.0047
838.0335	-0.0081
838.1997	0.0075
838.3657	-0.0022
838.5318	0.0072
838.6978	-0.0088
838.8639	0.0087
839.0299	0.0027
839.1958	0.0028
839.3618	-0.0001
839.5277	-0.0081
839.6937	-0.0109
839.8596	-0.0118
840.0254	-0.0103
840.1913	0.0185
840.3571	0.0082
840.523	-0.0041
840.6888	0.0034
840.8545	-0.0187
841.0203	-0.0127
841.186	0.0038
841.3517	-0.0253
841.5174	-0.0065
841.6831	0.0076
841.8488	0.0002
842.0144	0.0132
842.18	0.007
842.3456	-0.0021
842.5112	0.0128
842.6767	-0.011
842.8422	-0.0058
843.0077	-0.0097
843.1732	-0.0264
843.3387	-0.0117
843.5042	0.0039
843.6696	0.0019
843.835	-0.0263
844.0004	0.0251
844.1657	-0.0163
844.3311	0.0137
844.4964	0.0036
844.6617	0.0075
844.827	-0.008
844.9923	0.0091
845.1575	-0.0074
845.3227	-0.0135
845.4879	-0.0067
845.6531	0.0006
845.8183	-0.0286
845.9834	-0.0311
846.1485	0.0022
846.3136	-0.0712
846.4787	-0.0173
846.6438	0.0124
846.8088	0.0264
846.9738	-0.0027
847.1388	0.0003
847.3038	0.026
847.4687	0.0102
847.6337	-0.0006
847.7986	0.0311
847.9635	-0.0231
848.1284	-0.0157
848.2932	0.0108
848.458	0.0046
848.6228	0.0239
848.7876	-0.0435
848.9524	0.0271
849.1172	-0.0434
849.2819	0.0037
849.4466	0.0049
849.6113	-0.0061
849.7759	-0.0283
849.9406	-0.0082
850.1052	-0.0038
850.2698	0.0071
850.4344	0.0358
850.599	-0.0466
850.7635	0.0374
850.928	-0.0396
851.0925	0.0482
851.257	0.0043
851.4215	-0.0225
851.5859	0.0266
851.7503	0.0101
851.9147	0.0208
852.0791	-0.0061
852.2434	0.0105
852.4078	0.028
852.5721	-0.0365
852.7364	-0.0909
852.9007	0.0252
853.0649	0.0346
853.2291	-0.0166
853.3934	-0.0057
853.5575	0.0289
853.7217	-0.0306
853.8859	0.019
854.05	-0.0245
854.2141	-0.0342
854.3782	0.0047
854.5423	-0.0176
854.7063	0.0228
854.8703	-0.0285
855.0343	0.0045
855.1983	-0.0174
855.3623	-0.0366
855.5262	-0.0239
855.6901	0.0262
855.854	-0.0019
856.0179	0.0185
856.1818	-0.0041
856.3456	-0.0648
856.5094	-0.0197
856.6732	-0.065
856.837	-0.0015
857.0008	-0.0411
857.1645	0.0374
857.3282	-0.0223
857.4919	-0.0227
857.6556	0.0944
857.8192	-0.009
857.9828	0.0262
858.1465	-0.0385
858.31	-0.0098
858.4736	-0.065
858.6372	-0.0216
858.8007	0.0059
858.9642	-0.0142
859.1277	0.0526
859.2911	0.0192
859.4546	0.0024
859.618	-0.026
859.7814	0.039
859.9448	-0.0563
860.1081	-0.0524
860.2715	0.0697
860.4348	-0.0329
860.5981	-0.0202
860.7614	-0.1147
860.9246	-0.0803
861.0879	-0.1256
861.2511	0.0086
861.4143	-0.0762
861.5774	0.0124
861.7406	-0.0362
861.9037	-0.1952
862.0668	-0.0322
862.2299	0.0733
862.393	-0.0009
862.556	0.0776
862.7191	-0.1004
862.8821	0.012
863.0451	0.0708
863.208	-0.0447
863.371	0.1981
863.5339	-0.1186
863.6968	-0.1295
863.8597	-0.0189
864.0225	-0.2371
864.1854	0.0181
864.3482	-0.1284
864.511	-0.1087
864.6737	0.0231
864.8365	0.068
864.9992	-0.0885
865.1619	-0.0938
865.3246	-0.1516
865.4873	0.1281
865.65	0.0875
865.8126	0.0574
865.9752	-0.1136
866.1378	-0.1661
866.3004	-0.0717
866.4629	-0.1388
866.6254	0.0941
866.7879	0.3015
866.9504	-0.1065
867.1129	0.0545
867.2753	-0.0382
867.4377	-0.0478
867.6001	-0.2302
867.7625	0.2446
867.9249	-0.1595
868.0872	0.0025
868.2495	-0.1231
868.4118	-0.2114
868.5741	-0.1914
868.7363	-0.0667
868.8986	0.006
869.0608	-0.2185
869.223	-0.1431
869.3851	-0.1239
869.5473	-0.149
869.7094	-0.2799
869.8715	-0.0461
870.0336	-0.0609
870.1957	-0.0802
870.3577	-0.0259
870.5197	-0.5819
870.6817	-0.0269
870.8437	-0.0031
871.0057	-0.0743
871.1676	0.0438
871.3295	-0.4102
871.4914	-0.073
871.6533	-0.1837
871.8151	-0.0586
871.977	0.0899
872.1388	-0.1874
872.3006	0.0769
872.4623	0.1779
872.6241	-0.1426
872.7858	0.1147
872.9475	-0.1554
873.1092	-0.0255
873.2709	-0.3357
873.4325	-0.3807
873.5941	-0.2531
873.7557	0.0228
873.9173	-0.2397
874.0789	-0.1123
874.2404	-0.2294
874.4019	-0.4815
874.5634	0.1816
874.7249	-0.2801
874.8863	-0.2115
875.0478	-0
875.2092	-0.3618
875.3706	-0.3421
875.5319	-0.3451
875.6933	-0.2416
875.8546	-0.341
876.0159	-0.0859
876.1772	-0.4108
876.3385	-0
876.4997	-0.084
876.6609	1.1083
876.8221	-0.0539
876.9833	-0.5161
877.1445	-0.2418
877.3056	0.0566
877.4667	-0.6748
877.6278	0.0689
877.7889	0.1344
877.9499	-0.4297
878.111	-0.06
878.272	0.3239
878.433	0.1062
878.5939	0.2064
878.7549	-0.3818
878.9158	0.175
879.0767	0.0577
879.2376	0.1877
879.3984	0.1047
879.5593	-0.3646
879.7201	-0
879.8809	-0.0365
880.0417	0.0254
880.2024	-0.0684
880.3632	-0.1571
880.5239	-0
880.6846	-0.5132
880.8452	-0.222
881.0059	0.0323
881.1665	-0
881.3271	-0.4429
881.4877	-0.1546
881.6483	-0
881.8088	-0.1629
881.9693	0.1106
882.1298	0.1106
882.2903	0.1106
