Data from MonoPyChalIsomerACN10uM450nmA_Absorbance_13-11-29-891.txt Node
Date: Tue Jul 09 13:11:29 BST 2024
User: LASERRRRR
Spectrometer: FLMT03099
Trigger mode: 0
Integration Time (sec): 2.000000E-1
Scans to average: 1
Electric dark correction enabled: true
Nonlinearity correction enabled: false
Boxcar width: 0
XAxis mode: Wavelengths
Number of Pixels in Spectrum: 3648
>>>>>Begin Spectral Data<<<<<
179.3399	-0.0428
179.5586	-0.0428
179.7771	-0.0428
179.9957	0.2897
180.2143	-0
180.4329	0.2046
180.6514	-0
180.8699	-0
181.0885	0.7176
181.307	-0
181.5255	-0
181.744	-0
181.9625	-0
182.181	-0
182.3994	0.2151
182.6179	-0.4026
182.8363	-0.6553
183.0547	0.0054
183.2732	0.1369
183.4916	-0.0109
183.71	-0.0245
183.9284	0.0056
184.1467	0.0543
184.3651	0.0433
184.5835	0.0915
184.8018	0.0378
185.0201	0.0627
185.2385	0.0817
185.4568	-0.0502
185.6751	0.1354
185.8934	-0.0714
186.1117	0.0631
186.3299	-0.1643
186.5482	0.0387
186.7664	0.0269
186.9847	0.0728
187.2029	0.184
187.4211	0.0017
187.6393	-0.0415
187.8575	0.1497
188.0757	-0.035
188.2939	0.0663
188.512	-0.0406
188.7302	0.0016
188.9483	0.1507
189.1665	0.1088
189.3846	0.2438
189.6027	0.1004
189.8208	0.0837
190.0389	0.1028
190.257	0.1994
190.475	0.2244
190.6931	0.1399
190.9111	0.3164
191.1292	0.2141
191.3472	0.3301
191.5652	0.2418
191.7832	0.2523
192.0012	0.327
192.2192	0.24
192.4371	0.4856
192.6551	0.3605
192.873	0.3587
193.091	0.4107
193.3089	0.4588
193.5268	0.5361
193.7447	0.4909
193.9626	0.4466
194.1805	0.4578
194.3984	0.6214
194.6162	0.582
194.8341	0.4838
195.0519	0.5485
195.2697	0.5405
195.4875	0.5507
195.7054	0.6337
195.9231	0.5989
196.1409	0.694
196.3587	0.5821
196.5765	0.6236
196.7942	0.7318
197.012	0.5764
197.2297	0.6987
197.4474	0.6096
197.6651	0.6036
197.8828	0.7681
198.1005	0.6694
198.3182	0.6895
198.5358	0.6968
198.7535	0.732
198.9711	0.8805
199.1888	0.7293
199.4064	0.8176
199.624	0.7046
199.8416	0.7365
200.0592	0.7839
200.2767	0.7594
200.4943	0.7702
200.7119	0.8709
200.9294	0.963
201.1469	0.8575
201.3645	0.7377
201.582	0.9247
201.7995	0.7842
202.017	0.8751
202.2344	0.7676
202.4519	0.9284
202.6694	0.7933
202.8868	0.8943
203.1042	0.899
203.3217	0.8373
203.5391	0.966
203.7565	0.8975
203.9739	0.9117
204.1913	0.7601
204.4086	0.8815
204.626	0.9095
204.8433	0.9034
205.0607	0.9554
205.278	0.8732
205.4953	1.0439
205.7126	0.9133
205.9299	0.9604
206.1472	0.9487
206.3644	0.9793
206.5817	0.9142
206.7989	0.9949
207.0162	1.1037
207.2334	0.9571
207.4506	0.9406
207.6678	1.1148
207.885	1.03
208.1022	1.0031
208.3194	1.0062
208.5365	1.0187
208.7537	0.9356
208.9708	1.0102
209.1879	1.0596
209.405	1.0193
209.6222	0.9644
209.8392	1.0713
210.0563	0.9562
210.2734	1.0357
210.4905	1.0186
210.7075	1.0515
210.9245	0.9798
211.1416	1.0294
211.3586	1.0815
211.5756	1.0792
211.7926	1.0327
212.0096	1.0007
212.2265	1.0324
212.4435	1.0062
212.6604	1.0436
212.8774	1.0132
213.0943	1.0227
213.3112	0.9728
213.5281	1.029
213.745	1.0101
213.9619	0.9751
214.1788	0.9044
214.3956	0.9649
214.6125	0.942
214.8293	0.8693
215.0461	0.8402
215.2629	0.8606
215.4798	0.8256
215.6965	0.7857
215.9133	0.8175
216.1301	0.8331
216.3469	0.7932
216.5636	0.7868
216.7803	0.7334
216.9971	0.7268
217.2138	0.7143
217.4305	0.6955
217.6472	0.6726
217.8639	0.6411
218.0805	0.646
218.2972	0.5699
218.5138	0.5513
218.7305	0.4968
218.9471	0.4827
219.1637	0.4426
219.3803	0.4328
219.5969	0.396
219.8135	0.3557
220.0301	0.3422
220.2466	0.3503
220.4632	0.318
220.6797	0.3145
220.8962	0.3116
221.1127	0.3091
221.3292	0.3051
221.5457	0.2893
221.7622	0.2868
221.9787	0.2753
222.1951	0.2701
222.4116	0.271
222.628	0.2773
222.8444	0.2711
223.0608	0.2665
223.2772	0.267
223.4936	0.2597
223.71	0.2686
223.9264	0.2828
224.1427	0.2589
224.3591	0.263
224.5754	0.272
224.7917	0.2784
225.008	0.2736
225.2243	0.2731
225.4406	0.2763
225.6569	0.2796
225.8732	0.2796
226.0894	0.2709
226.3057	0.2824
226.5219	0.2844
226.7381	0.2877
226.9543	0.2759
227.1705	0.2784
227.3867	0.2878
227.6029	0.2864
227.8191	0.2981
228.0352	0.2954
228.2513	0.3006
228.4675	0.3011
228.6836	0.31
228.8997	0.3011
229.1158	0.3123
229.3319	0.3047
229.548	0.3243
229.764	0.3219
229.9801	0.3206
230.1961	0.3316
230.4121	0.3313
230.6282	0.3447
230.8442	0.334
231.0602	0.3446
231.2761	0.3321
231.4921	0.3461
231.7081	0.3601
231.924	0.363
232.14	0.3578
232.3559	0.3643
232.5718	0.3452
232.7877	0.3536
233.0036	0.3589
233.2195	0.364
233.4353	0.356
233.6512	0.3679
233.867	0.3603
234.0829	0.3816
234.2987	0.3773
234.5145	0.376
234.7303	0.3803
234.9461	0.3775
235.1619	0.3929
235.3776	0.3656
235.5934	0.3932
235.8091	0.39
236.0249	0.3745
236.2406	0.3901
236.4563	0.3897
236.672	0.3998
236.8877	0.3922
237.1034	0.4069
237.319	0.3996
237.5347	0.4026
237.7503	0.4023
237.966	0.4072
238.1816	0.4047
238.3972	0.4165
238.6128	0.4119
238.8284	0.4144
239.0439	0.4101
239.2595	0.421
239.475	0.4124
239.6906	0.4289
239.9061	0.4096
240.1216	0.41
240.3371	0.4156
240.5526	0.408
240.7681	0.3997
240.9836	0.4085
241.199	0.4155
241.4145	0.4021
241.6299	0.4056
241.8453	0.395
242.0607	0.394
242.2761	0.396
242.4915	0.3944
242.7069	0.3789
242.9223	0.3686
243.1376	0.3662
243.353	0.3585
243.5683	0.3707
243.7836	0.3509
243.9989	0.3434
244.2142	0.3338
244.4295	0.3465
244.6448	0.3225
244.86	0.3205
245.0753	0.3124
245.2905	0.3127
245.5057	0.3085
245.721	0.3032
245.9362	0.2882
246.1514	0.2827
246.3665	0.3017
246.5817	0.2659
246.7969	0.2693
247.012	0.272
247.2271	0.2732
247.4423	0.2674
247.6574	0.2701
247.8725	0.2524
248.0876	0.2563
248.3026	0.2532
248.5177	0.2445
248.7328	0.2459
248.9478	0.2365
249.1628	0.2401
249.3779	0.2405
249.5929	0.2247
249.8079	0.2308
250.0228	0.2297
250.2378	0.2321
250.4528	0.2236
250.6677	0.2181
250.8827	0.2133
251.0976	0.2128
251.3125	0.2191
251.5274	0.2115
251.7423	0.2153
251.9572	0.2111
252.172	0.211
252.3869	0.2004
252.6017	0.208
252.8166	0.2116
253.0314	0.2045
253.2462	0.2152
253.461	0.1977
253.6758	0.2008
253.8906	0.2002
254.1053	0.207
254.3201	0.2013
254.5348	0.2011
254.7496	0.2027
254.9643	0.199
255.179	0.1939
255.3937	0.1919
255.6083	0.205
255.823	0.199
256.0377	0.1936
256.2523	0.1954
256.467	0.1936
256.6816	0.1951
256.8962	0.1908
257.1108	0.2011
257.3254	0.1895
257.54	0.1941
257.7545	0.1967
257.9691	0.1974
258.1836	0.1911
258.3981	0.1939
258.6127	0.1923
258.8272	0.1928
259.0417	0.1958
259.2561	0.1938
259.4706	0.1887
259.6851	0.1818
259.8995	0.1861
260.114	0.1905
260.3284	0.2044
260.5428	0.2053
260.7572	0.2036
260.9716	0.2006
261.186	0.195
261.4003	0.2045
261.6147	0.2034
261.829	0.1986
262.0433	0.2033
262.2577	0.1969
262.472	0.1984
262.6863	0.1874
262.9005	0.1934
263.1148	0.1892
263.3291	0.1883
263.5433	0.1934
263.7576	0.1879
263.9718	0.1947
264.186	0.1886
264.4002	0.1845
264.6144	0.1839
264.8286	0.1776
265.0427	0.1839
265.2569	0.1809
265.471	0.1806
265.6851	0.1742
265.8993	0.179
266.1134	0.1754
266.3275	0.1813
266.5415	0.1757
266.7556	0.1857
266.9697	0.1803
267.1837	0.1829
267.3978	0.197
267.6118	0.1922
267.8258	0.193
268.0398	0.1994
268.2538	0.1902
268.4677	0.1958
268.6817	0.1907
268.8957	0.1989
269.1096	0.1963
269.3235	0.1791
269.5374	0.1825
269.7514	0.1724
269.9652	0.1734
270.1791	0.1623
270.393	0.1671
270.6068	0.1534
270.8207	0.159
271.0345	0.1622
271.2483	0.156
271.4622	0.1591
271.676	0.1499
271.8897	0.146
272.1035	0.139
272.3173	0.1497
272.531	0.1466
272.7448	0.1453
272.9585	0.146
273.1722	0.1448
273.3859	0.1479
273.5996	0.1432
273.8133	0.1508
274.0269	0.1505
274.2406	0.1469
274.4542	0.144
274.6679	0.141
274.8815	0.1509
275.0951	0.1477
275.3087	0.1473
275.5223	0.1483
275.7358	0.1491
275.9494	0.151
276.1629	0.1491
276.3765	0.1529
276.59	0.1525
276.8035	0.1464
277.017	0.1528
277.2305	0.1508
277.444	0.1513
277.6574	0.146
277.8709	0.1563
278.0843	0.1558
278.2978	0.1511
278.5112	0.1528
278.7246	0.1425
278.938	0.1532
279.1513	0.1563
279.3647	0.1527
279.5781	0.1495
279.7914	0.1618
280.0047	0.1501
280.2181	0.1584
280.4314	0.153
280.6447	0.1504
280.8579	0.1523
281.0712	0.1534
281.2845	0.1492
281.4977	0.152
281.711	0.1548
281.9242	0.152
282.1374	0.1573
282.3506	0.1471
282.5638	0.1584
282.7769	0.1641
282.9901	0.1544
283.2033	0.1602
283.4164	0.1583
283.6295	0.1615
283.8426	0.1559
284.0557	0.1508
284.2688	0.1505
284.4819	0.1543
284.695	0.1612
284.908	0.1559
285.1211	0.1605
285.3341	0.16
285.5471	0.165
285.7601	0.1516
285.9731	0.1594
286.1861	0.1637
286.3991	0.1587
286.612	0.1644
286.825	0.1641
287.0379	0.1637
287.2508	0.1571
287.4637	0.1555
287.6766	0.1479
287.8895	0.1613
288.1024	0.1542
288.3152	0.1594
288.5281	0.1602
288.7409	0.1539
288.9538	0.1623
289.1666	0.162
289.3794	0.1587
289.5922	0.1573
289.8049	0.1594
290.0177	0.1605
290.2304	0.16
290.4432	0.159
290.6559	0.1591
290.8686	0.1602
291.0813	0.1562
291.294	0.1578
291.5067	0.1522
291.7194	0.1609
291.932	0.1549
292.1447	0.1537
292.3573	0.1571
292.5699	0.1603
292.7825	0.1601
292.9951	0.1605
293.2077	0.1505
293.4203	0.1502
293.6328	0.16
293.8454	0.1559
294.0579	0.1544
294.2704	0.1603
294.4829	0.1561
294.6954	0.1543
294.9079	0.1618
295.1204	0.1576
295.3328	0.1576
295.5453	0.1538
295.7577	0.1539
295.9701	0.149
296.1825	0.1467
296.3949	0.1486
296.6073	0.1584
296.8197	0.1524
297.0321	0.1579
297.2444	0.146
297.4567	0.1515
297.6691	0.1507
297.8814	0.15
298.0937	0.1535
298.306	0.1483
298.5182	0.1441
298.7305	0.1573
298.9428	0.1508
299.155	0.1527
299.3672	0.1535
299.5794	0.1527
299.7916	0.1525
300.0038	0.1492
300.216	0.1545
300.4282	0.1529
300.6403	0.1577
300.8525	0.1582
301.0646	0.1515
301.2767	0.1475
301.4888	0.1518
301.7009	0.1481
301.913	0.1598
302.125	0.1491
302.3371	0.1571
302.5491	0.152
302.7612	0.151
302.9732	0.1603
303.1852	0.1466
303.3972	0.1572
303.6092	0.1482
303.8211	0.1542
304.0331	0.1426
304.245	0.1456
304.457	0.1506
304.6689	0.1476
304.8808	0.1457
305.0927	0.1471
305.3046	0.1448
305.5164	0.145
305.7283	0.1428
305.9401	0.1498
306.152	0.1452
306.3638	0.1462
306.5756	0.1361
306.7874	0.1378
306.9992	0.1369
307.2109	0.1298
307.4227	0.1373
307.6344	0.1321
307.8462	0.1288
308.0579	0.1266
308.2696	0.1298
308.4813	0.1288
308.693	0.1265
308.9046	0.1172
309.1163	0.1174
309.328	0.1192
309.5396	0.1192
309.7512	0.1213
309.9628	0.1184
310.1744	0.1217
310.386	0.114
310.5976	0.119
310.8091	0.1198
311.0207	0.1114
311.2322	0.1174
311.4437	0.1225
311.6552	0.1133
311.8667	0.11
312.0782	0.1157
312.2897	0.1071
312.5012	0.1144
312.7126	0.0989
312.924	0.1011
313.1355	0.1004
313.3469	0.0987
313.5583	0.1055
313.7696	0.1066
313.981	0.1046
314.1924	0.0947
314.4037	0.096
314.6151	0.0994
314.8264	0.1038
315.0377	0.1067
315.249	0.1086
315.4603	0.1042
315.6716	0.1061
315.8828	0.0987
316.0941	0.0984
316.3053	0.0993
316.5165	0.094
316.7277	0.1017
316.9389	0.1013
317.1501	0.1012
317.3613	0.1011
317.5724	0.0985
317.7836	0.0989
317.9947	0.1
318.2058	0.1044
318.417	0.1019
318.6281	0.1004
318.8391	0.096
319.0502	0.0969
319.2613	0.0949
319.4723	0.1051
319.6834	0.096
319.8944	0.1025
320.1054	0.0966
320.3164	0.105
320.5274	0.1033
320.7383	0.0985
320.9493	0.0995
321.1602	0.098
321.3712	0.1053
321.5821	0.096
321.793	0.0944
322.0039	0.0921
322.2148	0.102
322.4257	0.101
322.6365	0.0957
322.8474	0.0979
323.0582	0.1088
323.269	0.0999
323.4798	0.1054
323.6906	0.1033
323.9014	0.1029
324.1122	0.1039
324.3229	0.1076
324.5337	0.0961
324.7444	0.1005
324.9551	0.1024
325.1658	0.1095
325.3765	0.0984
325.5872	0.0998
325.7979	0.1124
326.0085	0.1106
326.2192	0.1002
326.4298	0.1119
326.6404	0.1006
326.851	0.099
327.0616	0.1029
327.2722	0.1031
327.4828	0.1034
327.6933	0.1059
327.9039	0.1102
328.1144	0.1073
328.3249	0.1075
328.5354	0.104
328.7459	0.1066
328.9564	0.1088
329.1669	0.1059
329.3773	0.1031
329.5878	0.1087
329.7982	0.1094
330.0086	0.1102
330.219	0.112
330.4294	0.1023
330.6398	0.1068
330.8502	0.099
331.0605	0.1025
331.2708	0.1073
331.4812	0.1064
331.6915	0.1089
331.9018	0.0995
332.1121	0.1123
332.3224	0.1052
332.5326	0.1025
332.7429	0.1096
332.9531	0.1092
333.1633	0.1156
333.3735	0.1173
333.5837	0.1006
333.7939	0.1145
334.0041	0.1065
334.2143	0.1021
334.4244	0.1123
334.6346	0.1068
334.8447	0.1117
335.0548	0.1117
335.2649	0.1042
335.475	0.1047
335.685	0.1192
335.8951	0.1193
336.1051	0.1062
336.3152	0.1066
336.5252	0.1053
336.7352	0.1158
336.9452	0.1082
337.1552	0.1141
337.3652	0.1196
337.5751	0.1088
337.7851	0.1152
337.995	0.1141
338.2049	0.1114
338.4148	0.1143
338.6247	0.108
338.8346	0.1129
339.0445	0.1153
339.2543	0.1152
339.4642	0.1186
339.674	0.112
339.8838	0.1141
340.0936	0.1114
340.3034	0.1151
340.5132	0.1131
340.7229	0.1255
340.9327	0.1112
341.1424	0.1164
341.3522	0.117
341.5619	0.135
341.7716	0.1277
341.9813	0.1272
342.1909	0.13
342.4006	0.1174
342.6102	0.1187
342.8199	0.1237
343.0295	0.1258
343.2391	0.1206
343.4487	0.1281
343.6583	0.1263
343.8679	0.126
344.0774	0.122
344.287	0.1363
344.4965	0.1227
344.706	0.131
344.9155	0.1251
345.125	0.1289
345.3345	0.1319
345.544	0.1163
345.7534	0.1315
345.9629	0.1325
346.1723	0.1246
346.3817	0.1384
346.5911	0.1388
346.8005	0.1238
347.0099	0.1195
347.2193	0.1363
347.4286	0.1417
347.638	0.1239
347.8473	0.1278
348.0566	0.1359
348.2659	0.127
348.4752	0.1362
348.6845	0.1372
348.8937	0.1431
349.103	0.1335
349.3122	0.1334
349.5214	0.1445
349.7306	0.1348
349.9398	0.1292
350.149	0.1353
350.3582	0.1358
350.5674	0.143
350.7765	0.1374
350.9856	0.1325
351.1948	0.1366
351.4039	0.1346
351.613	0.1267
351.822	0.1416
352.0311	0.1411
352.2402	0.1522
352.4492	0.139
352.6582	0.1353
352.8672	0.1402
353.0762	0.1527
353.2852	0.1488
353.4942	0.1477
353.7032	0.1514
353.9121	0.1468
354.1211	0.1459
354.33	0.1486
354.5389	0.1522
354.7478	0.1518
354.9567	0.149
355.1655	0.1536
355.3744	0.1507
355.5833	0.1499
355.7921	0.1486
356.0009	0.1453
356.2097	0.1483
356.4185	0.1533
356.6273	0.1616
356.8361	0.1502
357.0448	0.1595
357.2536	0.1503
357.4623	0.1521
357.671	0.1601
357.8797	0.1618
358.0884	0.1594
358.2971	0.1665
358.5057	0.1565
358.7144	0.1618
358.923	0.1726
359.1316	0.1628
359.3402	0.1684
359.5488	0.1596
359.7574	0.1641
359.966	0.1717
360.1746	0.168
360.3831	0.1817
360.5916	0.1816
360.8002	0.1708
361.0087	0.1779
361.2172	0.1671
361.4256	0.1694
361.6341	0.173
361.8426	0.1736
362.051	0.1707
362.2594	0.1804
362.4678	0.1781
362.6762	0.1732
362.8846	0.1815
363.093	0.1746
363.3014	0.1751
363.5097	0.1727
363.718	0.1919
363.9264	0.176
364.1347	0.2025
364.343	0.1781
364.5513	0.1897
364.7595	0.1875
364.9678	0.1772
365.176	0.192
365.3842	0.1836
365.5925	0.1909
365.8007	0.1849
366.0089	0.1972
366.217	0.1914
366.4252	0.1986
366.6333	0.1938
366.8415	0.1872
367.0496	0.1917
367.2577	0.2003
367.4658	0.1959
367.6739	0.2009
367.882	0.1973
368.09	0.1929
368.2981	0.2032
368.5061	0.1974
368.7141	0.2013
368.9221	0.195
369.1301	0.2016
369.3381	0.1982
369.5461	0.2252
369.754	0.2036
369.962	0.2061
370.1699	0.2046
370.3778	0.205
370.5857	0.2066
370.7936	0.1925
371.0015	0.2099
371.2093	0.1965
371.4172	0.2087
371.625	0.2016
371.8328	0.2147
372.0406	0.2124
372.2484	0.2048
372.4562	0.204
372.664	0.2132
372.8717	0.2171
373.0795	0.2071
373.2872	0.2211
373.4949	0.1948
373.7026	0.2106
373.9103	0.2063
374.118	0.2239
374.3256	0.2178
374.5333	0.2091
374.7409	0.2087
374.9485	0.2177
375.1561	0.2126
375.3637	0.2104
375.5713	0.2131
375.7789	0.2097
375.9864	0.2133
376.194	0.2193
376.4015	0.2222
376.609	0.2182
376.8165	0.2116
377.024	0.2107
377.2315	0.2193
377.4389	0.2145
377.6464	0.2119
377.8538	0.2146
378.0612	0.2254
378.2686	0.2269
378.476	0.2209
378.6834	0.2284
378.8908	0.2259
379.0981	0.2364
379.3055	0.2179
379.5128	0.2246
379.7201	0.2239
379.9274	0.2301
380.1347	0.2284
380.342	0.2333
380.5492	0.2353
380.7565	0.2335
380.9637	0.2323
381.1709	0.2187
381.3781	0.2274
381.5853	0.2313
381.7925	0.232
381.9997	0.2245
382.2068	0.2352
382.4139	0.2288
382.6211	0.2363
382.8282	0.232
383.0353	0.2282
383.2424	0.2372
383.4494	0.2463
383.6565	0.2321
383.8635	0.2417
384.0706	0.2408
384.2776	0.2332
384.4846	0.2388
384.6916	0.2338
384.8986	0.2386
385.1055	0.2391
385.3125	0.2397
385.5194	0.2436
385.7263	0.2455
385.9333	0.2345
386.1402	0.2351
386.347	0.2437
386.5539	0.2407
386.7608	0.2361
386.9676	0.2273
387.1744	0.2323
387.3813	0.2267
387.5881	0.2413
387.7948	0.234
388.0016	0.238
388.2084	0.2407
388.4151	0.2199
388.6219	0.2308
388.8286	0.2366
389.0353	0.2312
389.242	0.2405
389.4487	0.2275
389.6553	0.2267
389.862	0.2275
390.0686	0.2181
390.2753	0.2278
390.4819	0.2318
390.6885	0.2273
390.8951	0.2295
391.1016	0.2288
391.3082	0.2153
391.5147	0.2225
391.7213	0.2176
391.9278	0.2109
392.1343	0.2105
392.3408	0.2197
392.5473	0.2125
392.7537	0.2166
392.9602	0.2058
393.1666	0.2121
393.373	0.2081
393.5794	0.2159
393.7858	0.2029
393.9922	0.2033
394.1986	0.2071
394.4049	0.2102
394.6113	0.2103
394.8176	0.2029
395.0239	0.2012
395.2302	0.1909
395.4365	0.2027
395.6428	0.1987
395.8491	0.1989
396.0553	0.1985
396.2615	0.1999
396.4678	0.1999
396.674	0.2041
396.8802	0.1974
397.0863	0.2033
397.2925	0.1856
397.4987	0.1987
397.7048	0.1952
397.9109	0.2062
398.117	0.1989
398.3231	0.2003
398.5292	0.1926
398.7353	0.1914
398.9413	0.1904
399.1474	0.1913
399.3534	0.1887
399.5594	0.1964
399.7654	0.1964
399.9714	0.1908
400.1774	0.199
400.3833	0.1995
400.5893	0.1897
400.7952	0.1801
401.0011	0.1888
401.207	0.2033
401.4129	0.1771
401.6188	0.1955
401.8247	0.1814
402.0305	0.1861
402.2364	0.1931
402.4422	0.1891
402.648	0.2061
402.8538	0.1954
403.0596	0.1874
403.2654	0.1795
403.4711	0.1965
403.6768	0.1952
403.8826	0.1895
404.0883	0.1971
404.294	0.1869
404.4997	0.1962
404.7054	0.1952
404.911	0.1978
405.1167	0.1928
405.3223	0.1887
405.5279	0.1944
405.7335	0.1918
405.9391	0.1903
406.1447	0.1853
406.3502	0.1788
406.5558	0.1875
406.7613	0.1812
406.9668	0.1898
407.1724	0.1995
407.3778	0.1819
407.5833	0.1897
407.7888	0.202
407.9942	0.18
408.1997	0.2033
408.4051	0.2038
408.6105	0.1956
408.8159	0.1974
409.0213	0.192
409.2267	0.1854
409.432	0.2023
409.6374	0.1923
409.8427	0.199
410.048	0.1922
410.2533	0.1926
410.4586	0.1835
410.6639	0.1785
410.8691	0.1813
411.0744	0.1877
411.2796	0.199
411.4848	0.1817
411.69	0.1923
411.8952	0.1731
412.1004	0.1802
412.3056	0.2004
412.5107	0.1989
412.7158	0.1799
412.921	0.1909
413.1261	0.1704
413.3312	0.1923
413.5362	0.1834
413.7413	0.1757
413.9464	0.1839
414.1514	0.1645
414.3564	0.1866
414.5614	0.1887
414.7664	0.1952
414.9714	0.1752
415.1764	0.1879
415.3813	0.1877
415.5863	0.1888
415.7912	0.1912
415.9961	0.1847
416.201	0.1875
416.4059	0.1806
416.6108	0.1862
416.8156	0.17
417.0205	0.1865
417.2253	0.182
417.4301	0.1847
417.6349	0.179
417.8397	0.1738
418.0445	0.183
418.2492	0.1768
418.454	0.1847
418.6587	0.1863
418.8634	0.1818
419.0681	0.182
419.2728	0.1831
419.4775	0.1715
419.6822	0.1794
419.8868	0.173
420.0915	0.1634
420.2961	0.1645
420.5007	0.1802
420.7053	0.1821
420.9099	0.1612
421.1144	0.1745
421.319	0.1659
421.5235	0.1715
421.728	0.1658
421.9325	0.1691
422.137	0.1577
422.3415	0.1722
422.546	0.1645
422.7504	0.1679
422.9549	0.1777
423.1593	0.1645
423.3637	0.166
423.5681	0.1715
423.7725	0.1645
423.9769	0.166
424.1812	0.1553
424.3856	0.1526
424.5899	0.1648
424.7942	0.1527
424.9985	0.1538
425.2028	0.144
425.4071	0.1566
425.6113	0.1532
425.8156	0.1477
426.0198	0.1539
426.224	0.1435
426.4282	0.1415
426.6324	0.1563
426.8366	0.1635
427.0407	0.1498
427.2449	0.1505
427.449	0.1428
427.6531	0.1396
427.8572	0.1352
428.0613	0.1447
428.2654	0.136
428.4694	0.1507
428.6735	0.1571
428.8775	0.1352
429.0815	0.1349
429.2855	0.1413
429.4895	0.1331
429.6935	0.1371
429.8975	0.1337
430.1014	0.1257
430.3053	0.126
430.5093	0.1383
430.7132	0.1277
430.9171	0.1312
431.1209	0.1322
431.3248	0.1224
431.5286	0.128
431.7325	0.1251
431.9363	0.125
432.1401	0.1267
432.3439	0.1169
432.5477	0.1204
432.7514	0.1126
432.9552	0.1165
433.1589	0.1085
433.3627	0.1051
433.5664	0.121
433.7701	0.0998
433.9737	0.0908
434.1774	0.1057
434.3811	0.0953
434.5847	0.118
434.7883	0.1011
434.9919	0.1054
435.1955	0.0763
435.3991	0.0964
435.6027	0.0823
435.8062	0.0973
436.0098	0.0908
436.2133	0.0882
436.4168	0.088
436.6203	0.0873
436.8238	0.0887
437.0272	0.0806
437.2307	0.0918
437.4341	0.0836
437.6375	0.0822
437.841	0.0773
438.0443	0.0739
438.2477	0.0786
438.4511	0.0884
438.6545	0.0788
438.8578	0.0862
439.0611	0.0676
439.2644	0.0838
439.4677	0.0712
439.671	0.0766
439.8743	0.0687
440.0775	0.0668
440.2808	0.0601
440.484	0.0679
440.6872	0.0641
440.8904	0.0594
441.0936	0.056
441.2967	0.0639
441.4999	0.0579
441.703	0.0569
441.9062	0.0607
442.1093	0.0473
442.3124	0.0563
442.5155	0.0557
442.7185	0.0388
442.9216	0.0465
443.1246	0.0553
443.3276	0.046
443.5307	0.0468
443.7337	0.0466
443.9366	0.0471
444.1396	0.0396
444.3426	0.0554
444.5455	0.036
444.7484	0.0428
444.9513	0.0442
445.1542	0.0437
445.3571	0.0348
445.56	0.0356
445.7628	0.0376
445.9657	0.0428
446.1685	0.0356
446.3713	0.0382
446.5741	0.0474
446.7769	0.0381
446.9797	0.0256
447.1824	0.0293
447.3852	0.0334
447.5879	0.0331
447.7906	0.029
447.9933	0.0297
448.196	0.0323
448.3986	0.0267
448.6013	0.0274
448.8039	0.0254
449.0066	0.0249
449.2092	0.0172
449.4118	0.0229
449.6143	0.0212
449.8169	0.0233
450.0195	0.0115
450.222	0.0094
450.4245	0.02
450.627	0.0213
450.8295	0.0258
451.032	0.0321
451.2345	0.0139
451.4369	0.0192
451.6394	0.0136
451.8418	0.0053
452.0442	0.0128
452.2466	0.0216
452.449	0.014
452.6513	0.0141
452.8537	0.0085
453.056	0.0063
453.2583	0.0133
453.4607	0.0181
453.663	0.0202
453.8652	0.0034
454.0675	0.0145
454.2697	0.0186
454.472	0.0064
454.6742	0.0047
454.8764	0.0158
455.0786	0.0176
455.2808	0.0097
455.4829	0.0045
455.6851	0.0016
455.8872	0.0077
456.0893	0.0083
456.2915	0.0023
456.4935	0.0034
456.6956	0.0096
456.8977	0.0033
457.0997	0.0065
457.3018	0.0046
457.5038	0.0075
457.7058	-0.0039
457.9078	0.0158
458.1098	0.0035
458.3117	0.0098
458.5137	0.0009
458.7156	0.0088
458.9175	0.0118
459.1194	0.0088
459.3213	0.0048
459.5232	0.0007
459.725	-0.005
459.9269	-0.0047
460.1287	-0.0021
460.3305	-0.0045
460.5323	0.01
460.7341	0.0043
460.9359	-0.0043
461.1376	0.0001
461.3394	-0.0065
461.5411	0.0027
461.7428	-0.0003
461.9445	0.0002
462.1462	-0.0056
462.3479	-0.0019
462.5495	0.0048
462.7512	-0.0028
462.9528	-0.0018
463.1544	0.0076
463.356	-0.0016
463.5576	-0.0015
463.7592	-0.0044
463.9607	-0.0003
464.1623	-0.0005
464.3638	0.0092
464.5653	0.0062
464.7668	-0.0051
464.9683	0.0027
465.1697	-0.0071
465.3712	-0.0056
465.5726	-0.0031
465.7741	-0.0068
465.9755	-0.0059
466.1769	-0.0167
466.3782	-0.0114
466.5796	-0.0154
466.7809	-0.001
466.9823	-0.0104
467.1836	-0.0004
467.3849	-0.0071
467.5862	-0.0097
467.7875	-0.0071
467.9887	-0.0036
468.19	-0.0123
468.3912	-0.001
468.5924	0.008
468.7936	-0.0104
468.9948	0.0014
469.196	-0.0056
469.3972	0.0025
469.5983	0.0107
469.7994	-0.0108
470.0006	-0.014
470.2017	0.0031
470.4027	-0.0012
470.6038	-0.0174
470.8049	-0.0018
471.0059	-0.0025
471.2069	0.0073
471.408	-0.0054
471.6089	-0.005
471.8099	-0.0057
472.0109	-0.0123
472.2119	-0.0124
472.4128	-0.0031
472.6137	-0.0113
472.8146	0.0012
473.0155	-0.01
473.2164	-0.0095
473.4173	-0.0065
473.6181	0.0047
473.819	-0.0054
474.0198	-0.0075
474.2206	-0.0008
474.4214	-0.008
474.6222	-0.0062
474.8229	-0.0086
475.0237	-0.0092
475.2244	-0.0017
475.4251	-0.0063
475.6258	0.0034
475.8265	-0.0058
476.0272	-0.0007
476.2278	-0.0022
476.4285	-0.0075
476.6291	-0.0075
476.8297	-0.0123
477.0303	-0.0084
477.2309	-0.0034
477.4315	0.0008
477.632	-0.0018
477.8326	-0.0072
478.0331	0.0037
478.2336	0.0012
478.4341	-0.0138
478.6346	-0.0076
478.8351	-0.0049
479.0355	-0.0111
479.236	-0.0117
479.4364	-0.0062
479.6368	0.0018
479.8372	-0.0072
480.0376	-0.0044
480.2379	-0.0062
480.4383	-0.0069
480.6386	-0.0093
480.8389	-0.0122
481.0392	-0.0125
481.2395	-0.0071
481.4398	-0.01
481.6401	-0.0147
481.8403	-0.0117
482.0405	-0.0181
482.2408	-0.0021
482.441	-0.0046
482.6411	0.004
482.8413	-0.0094
483.0415	-0.0063
483.2416	-0.0036
483.4417	-0.0052
483.6419	-0.0038
483.8419	-0.0096
484.042	-0.0033
484.2421	0.0013
484.4422	-0.0008
484.6422	-0.0143
484.8422	-0.0077
485.0422	-0.0136
485.2422	-0.0072
485.4422	-0.0075
485.6422	-0.0049
485.8421	0.0006
486.042	-0.0077
486.242	-0.0111
486.4419	-0.0081
486.6417	-0.0013
486.8416	-0.0027
487.0415	-0.0041
487.2413	-0.0084
487.4411	-0.0073
487.641	-0.0068
487.8408	-0.003
488.0405	-0.0086
488.2403	-0.0132
488.4401	-0.0068
488.6398	-0.0101
488.8395	-0.0089
489.0392	-0.007
489.2389	-0.0122
489.4386	-0.0121
489.6383	-0.0026
489.8379	-0.0098
490.0376	-0.0128
490.2372	-0.0045
490.4368	-0.0085
490.6364	-0.0044
490.836	-0.0125
491.0355	-0.0074
491.2351	-0.0023
491.4346	-0.0038
491.6341	-0.0116
491.8336	-0.0043
492.0331	-0.0092
492.2326	-0.0085
492.432	-0.0014
492.6315	-0.0057
492.8309	-0.0049
493.0303	-0.0109
493.2297	-0.0091
493.4291	-0.0082
493.6284	-0.005
493.8278	-0.012
494.0271	-0.001
494.2264	-0.0071
494.4257	-0.005
494.625	-0.0029
494.8243	-0.0089
495.0236	-0.0158
495.2228	-0.0086
495.422	-0.0053
495.6213	-0.008
495.8205	-0.0024
496.0196	-0.0092
496.2188	-0.0096
496.418	-0.0103
496.6171	-0.0032
496.8162	-0.0103
497.0153	-0.0002
497.2144	-0.0054
497.4135	-0.004
497.6126	-0.006
497.8116	-0.0007
498.0107	-0.0031
498.2097	-0.0121
498.4087	-0.0064
498.6077	-0.0071
498.8067	-0.0115
499.0056	-0.0001
499.2046	0.0011
499.4035	-0.0094
499.6024	-0.0075
499.8013	-0.0022
500.0002	-0.0066
500.199	-0.0051
500.3979	-0.0021
500.5967	-0.0153
500.7956	-0.0097
500.9944	-0.0068
501.1932	-0.0102
501.3919	-0.0117
501.5907	-0.0047
501.7895	-0.0002
501.9882	-0.0119
502.1869	-0.0032
502.3856	-0.0009
502.5843	-0.0205
502.783	-0.008
502.9816	-0.0104
503.1803	-0.0094
503.3789	-0.0056
503.5775	-0.0044
503.7761	-0.0136
503.9747	-0.0128
504.1732	-0.004
504.3718	-0.0003
504.5703	-0.0006
504.7689	-0.0027
504.9674	0.0021
505.1658	-0.008
505.3643	-0.001
505.5628	0.0021
505.7612	-0.0074
505.9597	-0.0077
506.1581	-0.0019
506.3565	-0.011
506.5549	-0.0077
506.7532	-0.0054
506.9516	-0.0019
507.1499	-0.0082
507.3482	-0.0072
507.5465	-0.0015
507.7448	-0.0021
507.9431	-0.0037
508.1414	-0.0094
508.3396	-0.0006
508.5379	-0.0032
508.7361	0.0027
508.9343	-0.0103
509.1325	-0.0074
509.3306	-0.0041
509.5288	-0.0026
509.7269	-0.017
509.9251	-0.0049
510.1232	-0.001
510.3213	-0.0123
510.5193	0.0048
510.7174	0.0029
510.9154	-0.0094
511.1135	-0.0078
511.3115	-0.006
511.5095	-0.0028
511.7075	-0.0061
511.9055	-0.0081
512.1034	-0.0121
512.3014	-0.0061
512.4993	-0.0044
512.6972	-0.0014
512.8951	-0.017
513.093	-0.0102
513.2908	-0.0027
513.4887	-0.0075
513.6865	-0.0014
513.8844	-0.0007
514.0822	-0.0023
514.2799	-0.0158
514.4777	-0.0046
514.6755	-0.003
514.8732	-0.0095
515.0709	-0.0083
515.2687	-0.0061
515.4664	-0.0001
515.664	-0.0109
515.8617	-0.0056
516.0594	-0.0079
516.257	-0.0096
516.4546	-0.0116
516.6522	-0.0079
516.8498	-0.0185
517.0474	-0.0021
517.2449	-0.0143
517.4425	-0.0033
517.64	-0.0113
517.8375	-0.0097
518.035	-0.0016
518.2325	-0.0101
518.43	-0.0072
518.6274	-0.0127
518.8249	-0.002
519.0223	-0.0146
519.2197	-0.0103
519.4171	-0.0025
519.6145	-0.0051
519.8118	-0.0141
520.0092	-0.0104
520.2065	-0.009
520.4038	-0.0064
520.6011	-0.0147
520.7984	-0.0114
520.9956	-0.0094
521.1929	-0.0074
521.3901	-0.0095
521.5874	-0.0059
521.7846	0.0032
521.9818	-0.0138
522.1789	-0.0045
522.3761	-0.0106
522.5732	-0.0013
522.7704	-0.0038
522.9675	-0.0044
523.1646	-0.0113
523.3617	-0.0106
523.5587	-0.007
523.7558	0.0003
523.9528	-0.0064
524.1498	-0.007
524.3468	-0.0046
524.5438	-0.0031
524.7408	-0.0118
524.9378	-0.0117
525.1347	-0.0017
525.3316	-0.0015
525.5285	-0.0055
525.7254	-0.0073
525.9223	-0.0028
526.1192	-0.0081
526.316	-0.0038
526.5129	-0.0036
526.7097	-0.009
526.9065	-0.0006
527.1033	-0.0044
527.3	-0.007
527.4968	-0.0172
527.6935	-0.001
527.8903	-0.0004
528.087	-0.0087
528.2837	-0.0049
528.4804	-0.0114
528.677	-0.003
528.8737	-0.0085
529.0703	-0.0055
529.2669	0.0057
529.4635	-0.0035
529.6601	-0.012
529.8567	-0.0083
530.0532	0.0007
530.2498	-0.0023
530.4463	-0.0013
530.6428	0.0004
530.8393	0.0012
531.0358	-0.0042
531.2322	-0.0088
531.4287	-0.0123
531.6251	-0.0098
531.8215	-0.0023
532.0179	-0.0064
532.2143	-0.0053
532.4107	-0.0075
532.607	-0.013
532.8034	-0.0071
532.9997	-0.0018
533.196	-0.0085
533.3923	-0.0027
533.5886	-0.0012
533.7848	-0.0037
533.9811	-0.0041
534.1773	-0.0108
534.3735	-0.0074
534.5697	-0.0078
534.7659	-0.0061
534.9621	-0.0027
535.1582	-0.0065
535.3544	-0.0124
535.5505	-0.005
535.7466	-0.0091
535.9427	0.0029
536.1387	-0.0044
536.3348	0.0039
536.5308	-0.0053
536.7269	-0.0017
536.9229	-0.0041
537.1189	-0.0077
537.3148	-0.0084
537.5108	-0.002
537.7068	-0.006
537.9027	-0.0081
538.0986	0.0007
538.2945	-0.0095
538.4904	-0.0088
538.6863	-0.006
538.8821	-0.0065
539.078	-0.0168
539.2738	-0.0132
539.4696	-0.0032
539.6654	-0.0089
539.8611	-0.0022
540.0569	-0.004
540.2526	-0.0076
540.4484	0.0017
540.6441	-0.0003
540.8398	-0.007
541.0355	-0.0041
541.2311	-0.001
541.4268	0.0012
541.6224	0.0013
541.818	-0.0061
542.0136	-0.0048
542.2092	-0.0131
542.4048	-0.0032
542.6003	-0.009
542.7959	-0.0077
542.9914	-0.0096
543.1869	-0.0057
543.3824	-0.0062
543.5779	-0.012
543.7734	-0.0092
543.9688	-0.0133
544.1642	-0.0084
544.3596	-0.01
544.555	-0.0038
544.7504	-0.0053
544.9458	-0.0023
545.1411	0.0064
545.3365	-0.0055
545.5318	0.0023
545.7271	-0.0022
545.9224	0.0055
546.1177	-0.0158
546.3129	-0.0013
546.5081	-0.007
546.7034	-0.0093
546.8986	-0.0099
547.0938	-0.0005
547.289	-0.0081
547.4841	-0.0108
547.6793	-0.0064
547.8744	-0.0041
548.0695	-0.0091
548.2646	-0.0097
548.4597	-0.0022
548.6548	-0.0024
548.8498	-0.0033
549.0448	0.0014
549.2399	-0.0003
549.4349	0
549.6298	-0.0067
549.8248	-0.0048
550.0198	-0.0028
550.2147	-0.0015
550.4096	-0.0079
550.6045	-0.0088
550.7994	-0.0003
550.9943	-0.0032
551.1892	-0.0088
551.384	-0.0117
551.5788	-0.0089
551.7737	-0.0025
551.9685	-0.0084
552.1632	-0.0048
552.358	-0.0098
552.5528	-0.0033
552.7475	-0.0127
552.9422	-0.007
553.1369	-0.0111
553.3316	-0.001
553.5263	-0.0088
553.7209	-0.0065
553.9156	-0.0049
554.1102	-0.0117
554.3048	-0.0065
554.4994	-0.0083
554.694	-0.0012
554.8885	-0.0044
555.0831	-0.0016
555.2776	-0.0021
555.4721	-0.0067
555.6666	-0.0126
555.8611	-0.0048
556.0555	-0.0042
556.25	-0.001
556.4444	-0.0034
556.6388	-0.0096
556.8332	-0.0049
557.0276	-0.009
557.222	-0.0042
557.4163	0.0019
557.6107	-0.0123
557.805	-0.0038
557.9993	-0.003
558.1936	-0.0078
558.3879	0.0016
558.5821	0.0005
558.7764	-0.0072
558.9706	-0.0062
559.1648	-0.0032
559.359	-0.0128
559.5532	-0.0064
559.7473	-0.0099
559.9415	-0.0057
560.1356	-0.0038
560.3297	-0.0101
560.5238	-0.0024
560.7179	-0.0109
560.9119	0.0007
561.106	-0.0072
561.3	-0.0035
561.494	-0.0098
561.688	-0.0032
561.882	-0.0054
562.076	-0.0074
562.2699	-0.0053
562.4639	-0.0039
562.6578	-0.0066
562.8517	-0.004
563.0456	-0.0039
563.2395	-0.0036
563.4333	-0.0085
563.6272	-0.0078
563.821	-0.0072
564.0148	0.0019
564.2086	-0.0041
564.4024	-0.0083
564.5961	-0.0018
564.7899	0.0003
564.9836	0.0003
565.1773	-0.0046
565.371	0.0021
565.5647	-0.0026
565.7584	0.0035
565.952	0.0011
566.1456	-0.0011
566.3393	-0.0065
566.5329	-0.0062
566.7264	0.0011
566.92	-0.0021
567.1136	-0.0072
567.3071	-0.0039
567.5006	-0.0022
567.6941	-0
567.8876	-0.0045
568.0811	0.0021
568.2745	-0.0085
568.468	-0.008
568.6614	-0.0054
568.8548	-0.0127
569.0482	-0.007
569.2416	-0.0059
569.4349	0.0001
569.6283	-0.0073
569.8216	-0.0034
570.0149	-0.0055
570.2082	-0.0033
570.4015	-0.0014
570.5947	-0.0032
570.788	-0.0101
570.9812	-0.0057
571.1744	-0.0078
571.3676	-0.0038
571.5608	-0.0019
571.754	-0.0066
571.9471	-0.0016
572.1402	-0.0057
572.3333	-0.0061
572.5264	-0.004
572.7195	-0.0041
572.9126	-0.0057
573.1057	-0.0025
573.2987	-0.0008
573.4917	-0.0067
573.6847	-0.0037
573.8777	-0.0099
574.0707	-0.0024
574.2636	-0.0069
574.4566	-0.0042
574.6495	-0.0048
574.8424	-0.0036
575.0353	-0.0058
575.2281	-0.0001
575.421	-0.0016
575.6138	-0.0037
575.8067	-0.0046
575.9995	-0
576.1923	-0.0046
576.385	-0.009
576.5778	-0.0031
576.7706	0.0015
576.9633	-0.0039
577.156	-0.0016
577.3487	-0.0022
577.5414	0.001
577.734	0.0038
577.9267	0.0007
578.1193	-0.0082
578.3119	-0.0016
578.5045	-0.0043
578.6971	0.0025
578.8897	-0.0065
579.0822	0.0004
579.2747	0.0032
579.4673	-0.0048
579.6598	-0.0042
579.8522	-0.0045
580.0447	-0.0022
580.2372	0.001
580.4296	0.0061
580.622	-0.0011
580.8144	-0.0031
581.0068	-0.0021
581.1992	0.003
581.3915	-0.0048
581.5839	-0.0059
581.7762	-0.0045
581.9685	-0.0013
582.1608	-0.0039
582.353	0.0063
582.5453	-0.0037
582.7375	0.0009
582.9298	-0.0055
583.122	-0.0006
583.3142	-0.0019
583.5063	-0.0014
583.6985	-0.0079
583.8906	-0.0038
584.0827	-0.0057
584.2749	-0.0046
584.4669	-0.0046
584.659	-0.0058
584.8511	-0.0053
585.0431	-0.0034
585.2352	-0.0079
585.4272	-0.009
585.6192	-0.0068
585.8111	-0.0059
586.0031	-0.0015
586.195	-0.0071
586.387	0.0008
586.5789	-0.0047
586.7708	-0.0079
586.9627	-0.0039
587.1545	-0.0052
587.3464	-0.0056
587.5382	-0.0041
587.73	-0.006
587.9218	-0.0027
588.1136	0.0022
588.3053	-0.002
588.4971	-0.0065
588.6888	-0.0073
588.8805	-0.0068
589.0722	-0.0007
589.2639	-0.0023
589.4556	-0.003
589.6472	-0.0032
589.8389	-0.0014
590.0305	-0.0052
590.2221	-0.001
590.4137	-0.0045
590.6052	-0.0047
590.7968	-0.0005
590.9883	-0.0043
591.1798	-0.0096
591.3713	-0.0018
591.5628	-0.0041
591.7543	-0.0019
591.9458	-0.003
592.1372	-0.0041
592.3286	-0.001
592.52	-0.0076
592.7114	0.0047
592.9028	-0.0028
593.0941	-0.0013
593.2855	-0.0042
593.4768	-0.0014
593.6681	-0.0012
593.8594	0.0013
594.0506	0.0022
594.2419	0.0044
594.4331	-0.0034
594.6244	-0.0043
594.8156	-0.0068
595.0067	-0.0043
595.1979	-0.0037
595.3891	-0.0086
595.5802	-0.006
595.7713	-0.0004
595.9624	-0.0005
596.1535	0.0009
596.3446	-0.0017
596.5357	-0.0022
596.7267	-0.0033
596.9177	0.003
597.1087	-0.0031
597.2997	-0.0002
597.4907	-0.0066
597.6817	-0.0037
597.8726	-0.0071
598.0635	-0.009
598.2544	-0.0036
598.4453	-0.0062
598.6362	-0.0042
598.827	-0.0044
599.0179	-0.0043
599.2087	-0.0107
599.3995	-0.0099
599.5903	-0.0034
599.7811	-0.008
599.9718	-0.0006
600.1626	-0.0024
600.3533	-0
600.544	-0.006
600.7347	0.0023
600.9254	-0.0009
601.116	-0.0082
601.3067	-0.003
601.4973	-0.005
601.6879	0.0009
601.8785	-0.0071
602.0691	-0.0058
602.2596	-0.0022
602.4502	-0.0043
602.6407	-0.0037
602.8312	-0.0048
603.0217	-0.0029
603.2122	-0.0016
603.4027	-0.0003
603.5931	-0.0049
603.7835	-0.002
603.9739	-0.0068
604.1643	-0.0022
604.3547	-0.0013
604.5451	-0.0046
604.7354	-0.005
604.9257	-0.0064
605.116	-0.0014
605.3063	-0.0025
605.4966	-0.0051
605.6869	-0.0041
605.8771	-0.0045
606.0673	-0.0014
606.2575	-0.0054
606.4477	-0.0057
606.6379	-0.0085
606.8281	-0.0087
607.0182	-0.0101
607.2083	-0.01
607.3985	-0.0135
607.5885	-0.0033
607.7786	-0.0055
607.9687	-0.0023
608.1587	-0.0045
608.3488	-0.0013
608.5388	-0.0008
608.7288	-0.0086
608.9187	-0.0051
609.1087	-0.0036
609.2986	-0.0045
609.4886	-0.0034
609.6785	-0.0014
609.8684	-0.0049
610.0582	-0
610.2481	-0.0058
610.4379	-0.0002
610.6278	0.0008
610.8176	0.0001
611.0074	-0.0039
611.1971	-0.002
611.3869	0.0002
611.5766	0.0034
611.7664	-0.0052
611.9561	-0.003
612.1458	0.0042
612.3354	-0.0081
612.5251	-0.0081
612.7147	-0.0039
612.9044	-0.0039
613.094	-0.0039
613.2836	-0.0035
613.4731	-0.0069
613.6627	-0.005
613.8522	-0.0007
614.0417	-0.0008
614.2313	-0.0065
614.4207	-0.005
614.6102	0.0014
614.7997	-0.0024
614.9891	-0.0029
615.1785	-0.0091
615.3679	-0.0018
615.5573	-0.0008
615.7467	-0.0036
615.9361	-0.0022
616.1254	-0.0063
616.3147	-0.0008
616.504	-0.003
616.6933	-0.0008
616.8826	-0.008
617.0718	-0.0022
617.2611	0.0018
617.4503	0.0006
617.6395	0.0024
617.8287	-0.005
618.0179	0.0014
618.207	-0.0039
618.3961	0.0028
618.5853	-0.0055
618.7744	-0.0013
618.9634	0.0014
619.1525	-0.0073
619.3416	-0.0098
619.5306	-0.0016
619.7196	-0.0019
619.9086	0.0012
620.0976	-0.0007
620.2866	-0.0027
620.4755	-0.0077
620.6645	-0.0059
620.8534	-0.0013
621.0423	-0.0049
621.2312	-0.0097
621.42	-0.0032
621.6089	-0.0003
621.7977	-0.0062
621.9865	-0.008
622.1753	-0.0013
622.3641	0.0017
622.5529	-0.0009
622.7416	-0.0052
622.9303	0.0031
623.1191	-0.0041
623.3078	0.0003
623.4964	-0.0024
623.6851	0.0048
623.8737	-0.001
624.0624	-0.0005
624.251	0.0014
624.4396	-0.0049
624.6282	0.0006
624.8167	0.0049
625.0053	0.0004
625.1938	0.0009
625.3823	0.0014
625.5708	-0.0022
625.7593	-0.0044
625.9477	-0.0096
626.1362	-0.002
626.3246	-0.0009
626.513	-0.0093
626.7014	-0.0033
626.8898	-0.0073
627.0781	-0.0072
627.2665	-0.0062
627.4548	-0.0079
627.6431	-0.0045
627.8314	-0.0035
628.0197	-0.0035
628.2079	-0.0035
628.3962	0.0014
628.5844	0.0015
628.7726	-0.0018
628.9608	-0.0005
629.1489	-0.0001
629.3371	0.0046
629.5252	0.0017
629.7134	0.0041
629.9015	-0.001
630.0895	0.0043
630.2776	-0.0012
630.4657	0
630.6537	-0.0031
630.8417	-0.0026
631.0297	-0.0046
631.2177	-0.0015
631.4057	-0.0014
631.5936	0.0012
631.7815	-0.0052
631.9695	-0.0087
632.1574	-0.0073
632.3452	-0.0083
632.5331	-0.003
632.7209	-0.0117
632.9088	-0.0063
633.0966	-0.0053
633.2844	-0.0007
633.4722	0.0011
633.6599	-0.0042
633.8477	-0.0038
634.0354	-0.0063
634.2231	-0.0068
634.4108	-0.0037
634.5985	-0.0011
634.7861	-0.0058
634.9738	-0.0107
635.1614	-0.0053
635.349	-0.0009
635.5366	-0.0019
635.7242	-0.003
635.9117	0.0044
636.0993	0.0028
636.2868	-0.0053
636.4743	-0.001
636.6618	-0.0049
636.8492	-0.001
637.0367	-0.0037
637.2241	-0.0073
637.4115	-0.0109
637.5989	-0.0037
637.7863	-0.0023
637.9737	-0.005
638.161	-0.0005
638.3484	-0.0017
638.5357	-0.0045
638.723	0.0029
638.9103	0.0001
639.0975	0.0002
639.2848	-0.0021
639.472	0.0021
639.6592	0.0004
639.8464	-0.0006
640.0336	-0.0079
640.2208	-0.0004
640.4079	-0.0023
640.595	-0.0003
640.7821	-0.0027
640.9692	-0.0004
641.1563	0.0042
641.3434	0.0012
641.5304	-0.0006
641.7174	0.0036
641.9044	0.0074
642.0914	-0.0002
642.2784	0.0041
642.4653	0.0056
642.6523	0.0035
642.8392	0.0024
643.0261	0.0033
643.213	0.0005
643.3999	-0.0022
643.5867	-0.0068
643.7735	0.001
643.9604	-0.0023
644.1472	-0.0034
644.3339	-0.0019
644.5207	-0.0028
644.7075	-0.0056
644.8942	-0.003
645.0809	-0.0038
645.2676	-0.0051
645.4543	0.0067
645.6409	-0.002
645.8276	-0.0024
646.0142	-0.0041
646.2008	-0.0047
646.3874	-0.005
646.574	-0.0078
646.7605	-0.0029
646.9471	-0.0075
647.1336	-0.006
647.3201	-0.0041
647.5066	-0.0031
647.6931	0.0006
647.8795	-0.0052
648.0659	-0.0012
648.2524	-0.0055
648.4388	-0.0024
648.6252	-0.0049
648.8115	-0.0128
648.9979	-0.008
649.1842	-0.0083
649.3705	-0.0029
649.5568	-0.0025
649.7431	-0.0045
649.9294	-0.004
650.1156	-0.0027
650.3018	-0.0086
650.488	-0.0042
650.6742	-0.0036
650.8604	0.001
651.0466	0.0019
651.2327	-0.0002
651.4188	0.0017
651.6049	0.0011
651.791	-0.0053
651.9771	-0.0028
652.1632	-0.0003
652.3492	-0.0016
652.5352	-0.0019
652.7212	-0.0017
652.9072	0.0048
653.0932	0.0022
653.2791	-0.0028
653.465	-0.0024
653.651	-0.0035
653.8369	0.0015
654.0227	-0.001
654.2086	0
654.3944	-0.0058
654.5803	-0.0097
654.7661	-0.0045
654.9519	-0.0014
655.1377	-0.0025
655.3234	-0.0003
655.5092	-0.0003
655.6949	-0.0003
655.8806	-0.0003
656.0663	-0.0003
656.2519	-0.0003
656.4376	-0.0049
656.6232	-0.0027
656.8088	-0.0045
656.9945	-0.0019
657.18	0.0009
657.3656	0.0006
657.5511	-0.0034
657.7367	-0.0029
657.9222	0.0006
658.1077	0.0006
658.2932	-0.0015
658.4786	0.0009
658.6641	-0.0018
658.8495	-0.0067
659.0349	-0.0026
659.2203	-0.0089
659.4057	-0.0057
659.591	-0.0003
659.7764	-0.0056
659.9617	-0.0043
660.147	-0.0029
660.3323	-0.0068
660.5176	-0.0098
660.7028	-0.0055
660.888	-0.005
661.0733	-0.0007
661.2585	-0.0075
661.4436	-0.0067
661.6288	-0.0011
661.8139	0.0015
661.9991	-0.003
662.1842	0.003
662.3693	-0.0003
662.5544	-0.0046
662.7394	-0.0049
662.9245	0.0012
663.1095	0.0033
663.2945	-0.0072
663.4795	-0.0071
663.6644	-0.005
663.8494	-0.0065
664.0343	-0.0013
664.2193	-0.0053
664.4042	-0.011
664.589	-0.0064
664.7739	-0.0012
664.9587	-0.0044
665.1436	-0.0008
665.3284	-0.0029
665.5132	-0.0055
665.698	0.0037
665.8827	-0.0007
666.0675	-0.0043
666.2522	-0.0102
666.4369	-0.0084
666.6216	-0.0117
666.8063	-0.0064
666.9909	-0.0109
667.1756	-0.0084
667.3602	-0.0137
667.5448	-0.0102
667.7294	-0.0036
667.9139	-0.0034
668.0985	-0.0116
668.283	-0.006
668.4675	-0.0105
668.652	-0.0108
668.8365	-0.0123
669.0209	-0.0079
669.2054	-0.0043
669.3898	-0.0064
669.5742	-0.006
669.7586	-0.0041
669.943	-0.0055
670.1273	-0.0126
670.3117	-0.0078
670.496	-0.0069
670.6803	0.001
670.8646	-0.0027
671.0488	-0.0056
671.2331	-0.004
671.4173	-0.0042
671.6015	0.0003
671.7857	-0.0052
671.9699	0.0008
672.1541	-0.0074
672.3382	-0.0064
672.5223	-0.0104
672.7064	-0.0079
672.8905	-0.0158
673.0746	-0.0138
673.2587	-0.0118
673.4427	-0.0157
673.6267	-0.0125
673.8107	-0.0136
673.9947	-0.0122
674.1787	-0.0109
674.3626	-0.0086
674.5465	0.0008
674.7304	-0.001
674.9143	-0.0028
675.0982	-0.0018
675.2821	-0.0061
675.4659	-0.0031
675.6497	0
675.8335	-0.0063
676.0173	-0.0077
676.2011	-0.0071
676.3849	-0.0064
676.5686	-0.0031
676.7523	-0.0046
676.936	-0.0015
677.1197	0.0013
677.3034	-0.0084
677.487	-0.0005
677.6706	-0.0063
677.8542	-0.0032
678.0378	-0.0068
678.2214	-0.0068
678.405	-0.0033
678.5885	-0.0067
678.772	-0.0045
678.9555	-0.0029
679.139	-0.0071
679.3225	-0.0097
679.5059	-0.0067
679.6894	0.0003
679.8728	-0.0046
680.0562	-0.0058
680.2395	-0.0062
680.4229	-0.0003
680.6062	0.0037
680.7896	0.0004
680.9729	-0.0022
681.1562	0.0007
681.3394	-0.0029
681.5227	-0.0052
681.7059	-0.0041
681.8891	-0.0072
682.0723	-0.0034
682.2555	-0.0036
682.4387	-0.0043
682.6218	-0.008
682.805	-0.003
682.9881	-0.0078
683.1712	0.0013
683.3542	-0.0014
683.5373	-0.0059
683.7203	-0.0045
683.9034	-0.0073
684.0864	-0.004
684.2694	-0.0039
684.4523	-0.0051
684.6353	-0.0068
684.8182	-0.0027
685.0011	-0.0062
685.184	-0.0057
685.3669	-0.0066
685.5498	-0.0049
685.7326	-0.0052
685.9154	-0.0085
686.0982	-0.0086
686.281	-0.008
686.4638	-0.0054
686.6465	-0.0057
686.8293	-0.0027
687.012	-0.0028
687.1947	-0.0079
687.3774	-0.0012
687.56	-0.01
687.7427	0.0016
687.9253	-0.0025
688.1079	0.0014
688.2905	-0.0046
688.4731	-0.0004
688.6556	-0.0045
688.8382	-0.0053
689.0207	-0.0014
689.2032	-0.0017
689.3857	0.0009
689.5681	0.0014
689.7506	-0.0009
689.933	0.0019
690.1154	0.0019
690.2978	-0.0021
690.4802	-0.0014
690.6626	0.0053
690.8449	0.0004
691.0272	-0.0006
691.2095	0.0022
691.3918	-0.0037
691.5741	-0.0026
691.7563	0.0002
691.9386	-0.0039
692.1208	-0.009
692.303	-0.0035
692.4852	-0.0023
692.6673	-0.0037
692.8495	-0.0058
693.0316	-0.0042
693.2137	-0.0035
693.3958	-0.0031
693.5778	-0.0041
693.7599	-0.0088
693.9419	-0.009
694.1239	-0.0035
694.3059	-0.0129
694.4879	-0.0068
694.6699	-0.0138
694.8518	-0.0101
695.0337	-0.002
695.2157	-0.0058
695.3975	-0.0072
695.5794	-0.004
695.7613	-0.0084
695.9431	-0.0089
696.1249	-0.0045
696.3067	-0.007
696.4885	0.0003
696.6703	-0.0038
696.852	-0.0067
697.0337	-0.0016
697.2154	-0.0006
697.3971	-0.0072
697.5788	-0.0035
697.7605	-0.0056
697.9421	-0.007
698.1237	-0.003
698.3053	-0.0071
698.4869	0.0015
698.6685	-0.0053
698.85	-0.0063
699.0315	-0.0004
699.213	0.0015
699.3945	0.0008
699.576	0.0039
699.7575	-0.0043
699.9389	0.0041
700.1203	-0.0036
700.3017	-0.0112
700.4831	-0.0031
700.6645	-0.0086
700.8458	-0.0055
701.0271	-0.0061
701.2084	-0.0122
701.3897	-0.0065
701.571	-0.0016
701.7523	-0.0061
701.9335	0.0051
702.1147	0.0052
702.2959	-0.0038
702.4771	-0.0019
702.6583	0.0004
702.8394	-0.0026
703.0205	-0.0043
703.2016	-0.0048
703.3827	0.0007
703.5638	-0.0034
703.7449	-0.0049
703.9259	-0.0042
704.1069	-0.0002
704.2879	-0.0059
704.4689	-0.0051
704.6499	-0.0034
704.8308	-0.0009
705.0117	-0.0024
705.1927	-0.0009
705.3735	0.0024
705.5544	0.0034
705.7353	0.0016
705.9161	0.0013
706.0969	0.0039
706.2777	-0.0067
706.4585	-0.0006
706.6393	-0.002
706.82	-0.0063
707.0007	-0.0084
707.1815	-0.0035
707.3621	-0.0021
707.5428	-0.0052
707.7235	-0.0004
707.9041	-0.0021
708.0847	-0.0005
708.2653	-0.0042
708.4459	-0.0073
708.6265	-0.0044
708.807	-0.0009
708.9875	-0.0008
709.168	-0.0084
709.3485	-0.0037
709.529	-0.009
709.7095	-0.0059
709.8899	-0.0074
710.0703	0.0005
710.2507	-0.0017
710.4311	-0.0003
710.6115	0.0057
710.7918	-0.0039
710.9721	0.0013
711.1524	0.0004
711.3327	-0.0012
711.513	-0.0083
711.6932	-0.0048
711.8735	-0.0019
712.0537	-0.0037
712.2339	0.0005
712.4141	-0.0053
712.5942	-0
712.7744	0.005
712.9545	0.0003
713.1346	-0.0026
713.3147	0.0025
713.4947	0.0016
713.6748	-0.007
713.8548	-0.0075
714.0348	-0.006
714.2148	-0.0038
714.3948	-0.0086
714.5748	-0.0087
714.7547	-0.0087
714.9346	-0.004
715.1145	-0.0058
715.2944	-0.0053
715.4743	-0.0033
715.6541	-0.0031
715.834	-0.0014
716.0138	-0.0067
716.1936	0.0021
716.3733	-0.0056
716.5531	-0.0117
716.7328	-0.0063
716.9126	0.001
717.0923	-0.0038
717.2719	-0.0052
717.4516	-0.0047
717.6312	-0.0022
717.8109	-0.0056
717.9905	-0.0052
718.1701	-0.0039
718.3496	-0.0028
718.5292	-0.0023
718.7087	-0.0067
718.8882	-0.0033
719.0677	-0.0047
719.2472	-0.0042
719.4267	-0.0096
719.6061	-0.0071
719.7856	-0.0013
719.965	-0.0083
720.1443	-0.0009
720.3237	-0.0077
720.5031	-0.0084
720.6824	-0.0072
720.8617	-0.0079
721.041	-0.0045
721.2203	-0.0052
721.3995	-0.0084
721.5788	-0.0061
721.758	-0.0003
721.9372	-0.0047
722.1164	-0.0092
722.2956	-0.0099
722.4747	-0.0074
722.6538	-0.0079
722.8329	-0.0024
723.012	-0.0068
723.1911	-0.0066
723.3702	-0.002
723.5492	-0.0078
723.7282	-0.0034
723.9072	-0.0049
724.0862	-0.0009
724.2652	-0.0062
724.4441	-0.0065
724.623	0.0016
724.8019	0.0003
724.9808	0.0006
725.1597	0.0035
725.3385	0.0065
725.5174	0.002
725.6962	-0.0064
725.875	0.0045
726.0538	0.0046
726.2325	0.0028
726.4112	-0.0071
726.59	-0.0045
726.7687	-0.0064
726.9474	-0.0107
727.126	-0.0006
727.3047	-0.0092
727.4833	-0.0033
727.6619	-0.0122
727.8405	0.0007
728.0191	-0.0012
728.1976	-0.0071
728.3762	-0.0075
728.5547	-0.0034
728.7332	-0.0093
728.9116	-0.0146
729.0901	-0.0117
729.2686	-0.01
729.447	-0.007
729.6254	-0.0071
729.8038	-0.0098
729.9821	-0.0018
730.1605	-0.0027
730.3388	0.0027
730.5171	0.0015
730.6954	-0.0048
730.8737	-0.0057
731.0519	0.0028
731.2302	0.0055
731.4084	0.0019
731.5866	0.0035
731.7648	0.0014
731.9429	-0.0014
732.1211	0.0009
732.2992	-0.0003
732.4773	0.0026
732.6554	-0.0057
732.8335	-0.0017
733.0115	-0.0096
733.1896	-0.0132
733.3676	0.0003
733.5456	-0.0041
733.7235	-0.0043
733.9015	0.0023
734.0794	-0.0014
734.2574	-0.0019
734.4353	-0.0041
734.6131	-0.0031
734.791	-0.0097
734.9689	-0.0092
735.1467	0.0031
735.3245	0.0037
735.5023	-0.0045
735.68	-0.0035
735.8578	-0.0037
736.0355	0.0104
736.2132	0.0027
736.3909	-0.0022
736.5686	-0.0064
736.7463	-0.0049
736.9239	-0.0101
737.1015	-0.0012
737.2791	-0.0063
737.4567	-0.0106
737.6343	-0.0011
737.8118	-0.0072
737.9894	-0.0039
738.1669	-0.0066
738.3444	-0.0013
738.5218	0.0031
738.6993	0.0013
738.8767	-0.0038
739.0541	-0.0059
739.2315	-0.0064
739.4089	-0.0024
739.5863	-0.0068
739.7636	-0.007
739.9409	-0.0039
740.1182	-0.0002
740.2955	0.0011
740.4728	0.0009
740.65	-0.0006
740.8272	0.0037
741.0044	-0.0076
741.1816	-0.0012
741.3588	0.0015
741.5359	-0.0043
741.7131	-0.0024
741.8902	-0.0011
742.0673	0.0006
742.2444	-0.0065
742.4214	-0.0037
742.5985	-0.0101
742.7755	-0.0039
742.9525	-0.0038
743.1295	-0.0017
743.3064	-0.009
743.4834	-0.0015
743.6603	-0.0062
743.8372	0.002
744.0141	-0.0041
744.191	-0.002
744.3678	-0.0008
744.5446	0.0039
744.7215	-0.0045
744.8982	0.0001
745.075	-0.0023
745.2518	-0.0019
745.4285	-0.0004
745.6052	0.0037
745.7819	0.0007
745.9586	-0
746.1353	-0.0074
746.3119	-0.0019
746.4885	-0.0026
746.6651	-0.0018
746.8417	-0.0041
747.0183	-0.001
747.1948	-0.0127
747.3714	-0.0125
747.5479	-0.0033
747.7244	-0.0006
747.9008	0.0043
748.0773	0.0007
748.2537	0.0007
748.4301	-0.0017
748.6065	-0.0021
748.7829	0.0005
748.9593	0
749.1356	-0.004
749.3119	-0.0015
749.4882	0.0056
749.6645	-0.0028
749.8408	0.0011
750.017	-0.0028
750.1933	-0.0004
750.3695	-0.0021
750.5457	-0.0066
750.7218	0
750.898	-0.0078
751.0741	-0.0048
751.2502	-0.0005
751.4263	-0.0025
751.6024	-0.0052
751.7784	0.001
751.9545	-0.0023
752.1305	0.0005
752.3065	-0.007
752.4825	-0.0045
752.6584	-0.0044
752.8344	-0.0055
753.0103	-0.0075
753.1862	-0.0009
753.3621	-0.0003
753.5379	-0.0119
753.7138	0.0034
753.8896	-0.0083
754.0654	-0.0088
754.2412	-0.0088
754.417	-0.0059
754.5927	-0.0053
754.7685	-0.0163
754.9442	-0.0136
755.1199	-0.0077
755.2956	-0.0063
755.4712	-0.0071
755.6469	-0.0107
755.8225	-0.0097
755.9981	-0.0099
756.1736	-0.0052
756.3492	-0.0066
756.5248	-0.002
756.7003	-0.0064
756.8758	-0.0111
757.0513	-0.0113
757.2267	-0.0081
757.4022	-0.0091
757.5776	-0.0123
757.753	-0.0155
757.9284	-0.0048
758.1038	-0.0093
758.2791	-0.0116
758.4545	-0.011
758.6298	-0.0081
758.8051	-0.0136
758.9803	-0.0135
759.1556	-0.0083
759.3308	-0.0104
759.506	-0.0109
759.6812	-0.0087
759.8564	-0.0142
760.0316	-0.0095
760.2067	-0.0018
760.3819	-0.0056
760.557	-0.008
760.732	-0.0096
760.9071	-0.0138
761.0821	-0.0154
761.2572	-0.0109
761.4322	-0.0132
761.6072	-0.0159
761.7821	-0.012
761.9571	-0.0134
762.132	-0.0073
762.3069	-0.0019
762.4818	-0.0055
762.6567	-0.0114
762.8316	-0.0034
763.0064	-0.0011
763.1812	-0.0043
763.356	0.0027
763.5308	-0.0041
763.7055	0.0051
763.8803	-0.0044
764.055	-0.0027
764.2297	0.0005
764.4044	0.0017
764.579	0.0031
764.7537	-0.0055
764.9283	-0.0045
765.1029	0.0013
765.2775	0.0047
765.4521	0.0026
765.6266	-0.0018
765.8011	-0.0016
765.9756	-0.0028
766.1501	0.0034
766.3246	-0.0036
766.4991	0.0002
766.6735	-0.0055
766.8479	-0.0078
767.0223	0.0064
767.1967	-0.0063
767.371	-0.0017
767.5454	-0.0009
767.7197	-0.0013
767.894	0.0014
768.0683	-0.0025
768.2425	-0.0077
768.4168	-0.0016
768.591	0.0017
768.7652	0.0009
768.9394	0.0075
769.1135	0.0064
769.2877	0.0057
769.4618	0.0044
769.6359	0.002
769.81	0.0018
769.984	-0.0061
770.1581	0.0033
770.3321	0.0009
770.5061	-0.0033
770.6801	-0
770.8541	-0.0004
771.028	0.0032
771.202	0.0059
771.3759	-0.0014
771.5498	-0.0013
771.7236	-0.0042
771.8975	0.0004
772.0713	0.004
772.2451	0.0007
772.4189	0.0035
772.5927	-0.0029
772.7665	-0.0055
772.9402	0.0007
773.1139	-0.0036
773.2876	0.0029
773.4613	-0.0073
773.635	-0.0004
773.8086	0.0035
773.9822	0.0043
774.1558	0.0066
774.3294	0.0015
774.503	-0.002
774.6765	0.0003
774.8501	0
775.0236	-0.0143
775.1971	-0.0118
775.3705	-0.0026
775.544	-0.0077
775.7174	-0
775.8908	0.0007
776.0642	0.0005
776.2376	-0.0064
776.4109	-0.0076
776.5843	-0.0002
776.7576	0.0032
776.9309	-0.0023
777.1041	-0.0047
777.2774	0.005
777.4506	0.0025
777.6238	-0.0046
777.797	-0.0028
777.9702	-0.0077
778.1434	-0.0044
778.3165	0.0005
778.4896	-0.0092
778.6627	-0.0117
778.8358	-0.0062
779.0089	-0.0015
779.1819	0.0031
779.3549	-0.0071
779.5279	-0.0095
779.7009	-0.0078
779.8739	-0.0015
780.0468	-0.0116
780.2197	-0.0091
780.3926	-0.0078
780.5655	-0.0092
780.7384	-0.0067
780.9112	-0.0129
781.0841	-0.0079
781.2569	0.0041
781.4297	-0.0073
781.6024	0.0015
781.7752	-0.0039
781.9479	-0.0025
782.1206	-0.0027
782.2933	-0.0076
782.466	-0.0059
782.6386	0.0009
782.8113	-0.0121
782.9839	-0.0002
783.1565	-0.0102
783.329	-0.008
783.5016	-0.0042
783.6741	-0.0064
783.8466	-0.0128
784.0191	-0.0125
784.1916	-0.0053
784.3641	0.001
784.5365	0.0017
784.7089	0.0023
784.8813	0.0059
785.0537	0.0159
785.2261	-0.006
785.3984	-0.0012
785.5707	0.0039
785.743	0.0028
785.9153	0.0024
786.0876	-0.0005
786.2598	0.0004
786.432	0.0041
786.6042	0.0077
786.7764	0.0016
786.9486	-0.0003
787.1207	-0.0095
787.2928	0.0011
787.4649	-0.007
787.637	-0.0052
787.8091	0.0078
787.9811	0.0016
788.1532	0.0012
788.3252	-0.0047
788.4972	-0.0042
788.6691	-0.0088
788.8411	0.0073
789.013	-0.0028
789.1849	0.0088
789.3568	-0.012
789.5287	-0.0041
789.7005	0.0056
789.8723	-0.0016
790.0442	0.0001
790.2159	-0.0009
790.3877	-0.0134
790.5595	-0.0098
790.7312	0.0005
790.9029	-0.004
791.0746	-0.0089
791.2463	0
791.4179	-0.0047
791.5896	0.0023
791.7612	-0.0046
791.9328	0.0038
792.1044	-0.0032
792.2759	0.0008
792.4474	0.0006
792.619	-0.0035
792.7905	-0.0048
792.9619	0.0002
793.1334	-0.0034
793.3048	-0.0038
793.4762	-0.0055
793.6476	-0.0201
793.819	-0.0064
793.9904	-0.0078
794.1617	-0.0103
794.333	-0.0147
794.5043	-0.0096
794.6756	0.0016
794.8469	0.0021
795.0181	-0.0045
795.1893	-0.0063
795.3605	-0.0094
795.5317	-0.0098
795.7029	-0.0015
795.874	-0.0094
796.0452	-0.0081
796.2163	-0.013
796.3873	-0.0224
796.5584	-0.0111
796.7294	-0.0103
796.9005	-0.0172
797.0715	-0.0131
797.2425	-0.0229
797.4134	-0.017
797.5844	-0.0129
797.7553	-0.0096
797.9262	-0.0075
798.0971	-0.0177
798.2679	-0.0164
798.4388	-0.0134
798.6096	-0.0198
798.7804	-0.0115
798.9512	-0.0166
799.122	-0.0033
799.2927	-0.0133
799.4635	-0.0069
799.6342	-0.0026
799.8049	-0.0076
799.9755	-0.009
800.1462	-0.0213
800.3168	-0.0061
800.4874	-0.015
800.658	-0.025
800.8286	-0.0147
800.9991	-0.0099
801.1696	-0.0176
801.3402	-0.0217
801.5106	-0.0176
801.6811	-0.0233
801.8516	-0.0133
802.022	-0.0247
802.1924	-0.0218
802.3628	-0.0266
802.5332	-0.0175
802.7035	-0.0145
802.8739	-0.02
803.0442	-0.0159
803.2145	-0.0128
803.3847	-0.022
803.555	-0.0227
803.7252	-0.0087
803.8954	-0.021
804.0656	0.0018
804.2358	-0.0112
804.4059	-0.0058
804.5761	-0.0023
804.7462	-0.0105
804.9163	-0.0107
805.0864	-0.0104
805.2564	-0.0173
805.4264	-0.017
805.5965	-0.0283
805.7665	-0.003
805.9364	-0.0127
806.1064	-0.0024
806.2763	-0.0141
806.4462	-0.0124
806.6161	-0.0103
806.786	-0.0114
806.9559	-0.0176
807.1257	-0.0167
807.2955	-0.0097
807.4653	-0.0098
807.6351	-0.0109
807.8048	-0.0032
807.9746	-0.0047
808.1443	-0.0042
808.314	-0.0065
808.4837	0.0009
808.6533	-0.008
808.8229	0.0046
808.9926	0.0014
809.1622	-0.0068
809.3317	0.006
809.5013	0.0066
809.6708	0.0057
809.8403	0.0051
810.0098	0.0018
810.1793	-0.0194
810.3488	0.0094
810.5182	-0.0181
810.6876	0.0003
810.857	-0.0213
811.0264	-0.0167
811.1958	0.0001
811.3651	-0.0088
811.5344	-0.0108
811.7037	-0.0165
811.873	-0.0049
812.0422	-0.0065
812.2115	-0.0013
812.3807	0.0021
812.5499	-0.0078
812.7191	-0.0227
812.8882	-0.0026
813.0574	-0.0089
813.2265	-0.0063
813.3956	-0.0101
813.5646	-0.0141
813.7337	-0.0042
813.9027	0.0067
814.0718	-0.0038
814.2407	0.0097
814.4097	0.0058
814.5787	0.0061
814.7476	-0.0029
814.9165	-0.0029
815.0854	-0.0098
815.2543	0.0193
815.4232	0.0015
815.592	-0.0028
815.7608	-0.0016
815.9296	0.0028
816.0984	0.0006
816.2671	0.0045
816.4359	-0.0018
816.6046	0.004
816.7733	-0.0197
816.942	-0.0165
817.1106	-0.0067
817.2793	-0.007
817.4479	-0.0171
817.6165	-0.0206
817.785	-0.0152
817.9536	-0.0053
818.1221	-0.0068
818.2906	-0.0104
818.4591	-0.0115
818.6276	-0
818.7961	-0.0115
818.9645	-0.0083
819.1329	-0.0032
819.3013	-0.0098
819.4697	-0.0079
819.638	-0.0183
819.8064	-0.0078
819.9747	0.0018
820.143	-0.0152
820.3113	0.0028
820.4795	0.0102
820.6477	-0.006
820.816	-0.0048
820.9842	-0.0093
821.1523	-0.0209
821.3205	-0.0111
821.4886	-0.0125
821.6567	-0.0036
821.8248	-0.0218
821.9929	-0.0115
822.1609	-0.0044
822.329	-0.0026
822.497	-0.0128
822.665	-0.0105
822.833	-0.0255
823.0009	-0.0125
823.1688	-0.0243
823.3367	-0.0106
823.5046	-0.0075
823.6725	-0.0259
823.8404	-0.0113
824.0082	-0.0031
824.176	-0.01
824.3438	-0.0076
824.5116	-0.0014
824.6793	-0.0109
824.847	0.0013
825.0147	-0.0133
825.1824	-0.0237
825.3501	0.0061
825.5177	-0.0124
825.6854	-0
825.853	-0.0167
826.0206	0.0038
826.1881	0.0079
826.3557	-0.007
826.5232	-0.0041
826.6907	-0.0062
826.8582	-0.006
827.0257	-0.0216
827.1931	0.0014
827.3605	0.003
827.528	-0.0023
827.6953	-0.0056
827.8627	-0.0118
828.03	-0.0187
828.1974	0.0031
828.3647	0.0145
828.532	-0.0227
828.6992	-0.0079
828.8665	-0.0061
829.0337	0.0076
829.2009	-0.0194
829.3681	-0.018
829.5352	-0.0002
829.7024	-0.0085
829.8695	-0.0281
830.0366	-0.0333
830.2037	-0.0141
830.3707	-0.0075
830.5378	-0.0177
830.7048	-0.0339
830.8718	-0.0127
831.0388	-0.0097
831.2057	-0.0243
831.3727	-0.0223
831.5396	-0.0077
831.7065	-0.0008
831.8734	0.0039
832.0402	-0.0245
832.2071	0.0148
832.3739	0.0117
832.5407	-0.0032
832.7075	-0.0162
832.8742	0.0027
833.041	0.0164
833.2077	-0.0209
833.3744	-0.0102
833.541	-0.0147
833.7077	-0.0144
833.8743	-0.0067
834.0409	0.0027
834.2075	-0.0071
834.3741	0.0037
834.5407	-0.0128
834.7072	-0.0042
834.8737	-0.0169
835.0402	-0.0212
835.2067	-0.0248
835.3731	-0.0178
835.5395	-0.0394
835.706	-0.0406
835.8723	-0.0157
836.0387	-0.0271
836.2051	-0.005
836.3714	-0.0034
836.5377	-0.0031
836.704	0.0078
836.8703	-0.0148
837.0365	0.0096
837.2027	-0.0056
837.3689	-0.0152
837.5351	-0.0024
837.7013	-0.012
837.8674	0.0168
838.0335	-0.0109
838.1997	-0.0122
838.3657	0.0131
838.5318	-0.0028
838.6978	-0.0234
838.8639	0.0122
839.0299	-0.0257
839.1958	-0.0084
839.3618	-0.0053
839.5277	-0.0136
839.6937	-0.0203
839.8596	-0.004
840.0254	0.0019
840.1913	0.003
840.3571	0.0277
840.523	-0.0086
840.6888	-0.0065
840.8545	-0.0136
841.0203	0.0011
841.186	0.0054
841.3517	0.0093
841.5174	0.0024
841.6831	-0.0125
841.8488	0.0015
842.0144	0.0155
842.18	0.0018
842.3456	-0.019
842.5112	-0.0019
842.6767	-0.0084
842.8422	0.0025
843.0077	-0.0001
843.1732	-0.0095
843.3387	-0.0176
843.5042	-0.0068
843.6696	-0.0018
843.835	-0.0151
844.0004	0.0077
844.1657	-0.0032
844.3311	0.0152
844.4964	-0.0137
844.6617	-0.0129
844.827	-0.0083
844.9923	-0.013
845.1575	0.0021
845.3227	-0.0115
845.4879	-0.0043
845.6531	-0.0048
845.8183	-0.0413
845.9834	-0.0236
846.1485	-0.0086
846.3136	-0.0368
846.4787	-0.0263
846.6438	-0.018
846.8088	0.0146
846.9738	-0.0141
847.1388	0.0148
847.3038	0.0124
847.4687	0.002
847.6337	0.0039
847.7986	0.024
847.9635	-0.0143
848.1284	-0.0114
848.2932	0.0277
848.458	0.0148
848.6228	0.0136
848.7876	-0.0601
848.9524	0.0252
849.1172	-0.0158
849.2819	0.0097
849.4466	-0.0171
849.6113	0.0024
849.7759	-0.0292
849.9406	-0.0092
850.1052	0.0096
850.2698	-0.0063
850.4344	-0.0229
850.599	-0.0325
850.7635	0.0174
850.928	-0.0236
851.0925	0.0037
851.257	-0.0041
851.4215	0.0102
851.5859	0.0393
851.7503	-0.0268
851.9147	-0.0152
852.0791	0.0005
852.2434	-0.0414
852.4078	0.0162
852.5721	-0.05
852.7364	-0.1197
852.9007	0.0346
853.0649	-0.026
853.2291	-0.0265
853.3934	0.0067
853.5575	-0.0165
853.7217	-0.0312
853.8859	0.0101
854.05	-0.0162
854.2141	-0.0453
854.3782	-0.0016
854.5423	0.0091
854.7063	0.0047
854.8703	-0.0252
855.0343	-0.0417
855.1983	-0.0281
855.3623	-0.0002
855.5262	-0.0035
855.6901	-0.049
855.854	0.023
856.0179	0.0314
856.1818	-0.0102
856.3456	-0.0876
856.5094	-0.0176
856.6732	-0.049
856.837	-0.0475
857.0008	0.0017
857.1645	-0.0413
857.3282	-0.0232
857.4919	-0.0813
857.6556	0.0281
857.8192	-0.0609
857.9828	0.0225
858.1465	0.0296
858.31	-0.003
858.4736	-0.0758
858.6372	-0.0342
858.8007	-0.0416
858.9642	-0.0774
859.1277	-0.0261
859.2911	-0.0003
859.4546	0.0549
859.618	-0.0446
859.7814	-0.0066
859.9448	-0.0764
860.1081	-0.0473
860.2715	0.0422
860.4348	-0.0391
860.5981	-0.0888
860.7614	-0.1373
860.9246	-0.0623
861.0879	-0.0924
861.2511	-0.015
861.4143	-0.1372
861.5774	-0.0721
861.7406	0.0588
861.9037	-0.1609
862.0668	-0.039
862.2299	-0.0751
862.393	-0.0365
862.556	0.0761
862.7191	-0.0792
862.8821	-0.0852
863.0451	0.0196
863.208	-0.0841
863.371	-0.0228
863.5339	-0.0373
863.6968	-0.1358
863.8597	-0.0029
864.0225	-0.2435
864.1854	0.0136
864.3482	-0.1437
864.511	-0.1697
864.6737	-0.0273
864.8365	0.0434
864.9992	0.0267
865.1619	-0.1416
865.3246	-0.0282
865.4873	0.0695
865.65	0.0298
865.8126	-0.0274
865.9752	-0.1408
866.1378	-0.111
866.3004	-0.0612
866.4629	-0.2964
866.6254	0.002
866.7879	-0.1926
866.9504	-0.2347
867.1129	-0.0639
867.2753	-0.0267
867.4377	-0.0959
867.6001	-0.2975
867.7625	0.0094
867.9249	-0.191
868.0872	-0.053
868.2495	-0.2871
868.4118	-0.2087
868.5741	-0.118
868.7363	-0.0108
868.8986	-0.0602
869.0608	-0.0918
869.223	-0.2087
869.3851	-0.1653
869.5473	-0.0782
869.7094	-0.2193
869.8715	-0.0496
870.0336	-0.0968
870.1957	0.0235
870.3577	-0.1171
870.5197	-0.5916
870.6817	-0.2337
870.8437	-0.0938
871.0057	-0.4042
871.1676	-0.1823
871.3295	-0.4624
871.4914	-0.0629
871.6533	-0.1426
871.8151	0.3499
871.977	-0.0666
872.1388	-0.2139
872.3006	-0.1597
872.4623	-0.0766
872.6241	-0.0411
872.7858	0.0818
872.9475	-0.1986
873.1092	-0.1333
873.2709	-0.1998
873.4325	-0.2664
873.5941	-0.3225
873.7557	-0.0137
873.9173	-0.1045
874.0789	-0.2529
874.2404	-0.2502
874.4019	-0.2912
874.5634	-0.1983
874.7249	-0.2313
874.8863	-0.0191
875.0478	-0.0239
875.2092	-0.3701
875.3706	-0.1882
875.5319	-0.3058
875.6933	-0.1194
875.8546	-0.1211
876.0159	0.0284
876.1772	-0.3867
876.3385	0.4354
876.4997	-0.3368
876.6609	-0.2954
876.8221	-0.3492
876.9833	-0.721
877.1445	-0.2235
877.3056	-0.1771
877.4667	-1.0267
877.6278	0.2022
877.7889	0.005
877.9499	-0.7711
878.111	0.3317
878.272	0.0518
878.433	0.1005
878.5939	0.0741
878.7549	-0.4296
878.9158	-0.1684
879.0767	-0.1717
879.2376	-0.013
879.3984	-0.2442
879.5593	-0.4076
879.7201	-0
879.8809	-0.1062
880.0417	-0.1883
880.2024	-0.0157
880.3632	-0.4642
880.5239	-0
880.6846	-0.4199
880.8452	0.3511
881.0059	-0.3402
881.1665	-0
881.3271	-0.4689
881.4877	-0.3017
881.6483	-0
881.8088	-0.4354
881.9693	-0.0826
882.1298	-0.0826
882.2903	-0.0826
