Data from MonoPyChalIsomerACN10uM450nmA_Absorbance_13-11-18-692.txt Node
Date: Tue Jul 09 13:11:18 BST 2024
User: LASERRRRR
Spectrometer: FLMT03099
Trigger mode: 0
Integration Time (sec): 2.000000E-1
Scans to average: 1
Electric dark correction enabled: true
Nonlinearity correction enabled: false
Boxcar width: 0
XAxis mode: Wavelengths
Number of Pixels in Spectrum: 3648
>>>>>Begin Spectral Data<<<<<
179.3399	0.2304
179.5586	0.2304
179.7771	0.2304
179.9957	0.3819
180.2143	-0.1638
180.4329	0.3229
180.6514	1.3997
180.8699	0.6392
181.0885	-0
181.307	0.5703
181.5255	-0
181.744	0.4979
181.9625	0.2931
182.181	0.7619
182.3994	-0
182.6179	-0.3784
182.8363	-0.5521
183.0547	0.038
183.2732	0.1372
183.4916	0.1346
183.71	0.0314
183.9284	-0.0333
184.1467	-0.0038
184.3651	0.111
184.5835	0.0216
184.8018	0.1856
185.0201	0.1879
185.2385	0.1105
185.4568	-0.0347
185.6751	0.0977
185.8934	-0.0294
186.1117	0.0581
186.3299	-0.0898
186.5482	0.0559
186.7664	0.1386
186.9847	0.071
187.2029	0.0488
187.4211	0.069
187.6393	-0.0286
187.8575	0.0483
188.0757	-0.0164
188.2939	0.1401
188.512	-0.01
188.7302	0.0063
188.9483	0.0954
189.1665	0.2395
189.3846	0.175
189.6027	0.1853
189.8208	0.1358
190.0389	0.1809
190.257	0.2654
190.475	0.1509
190.6931	0.1125
190.9111	0.2135
191.1292	0.2442
191.3472	0.2357
191.5652	0.3411
191.7832	0.466
192.0012	0.3331
192.2192	0.3557
192.4371	0.5003
192.6551	0.4436
192.873	0.4012
193.091	0.523
193.3089	0.5352
193.5268	0.6799
193.7447	0.5054
193.9626	0.5693
194.1805	0.678
194.3984	0.6409
194.6162	0.5174
194.8341	0.6519
195.0519	0.5449
195.2697	0.5908
195.4875	0.6216
195.7054	0.5697
195.9231	0.6756
196.1409	0.6231
196.3587	0.5929
196.5765	0.6374
196.7942	0.6723
197.012	0.6441
197.2297	0.6654
197.4474	0.7807
197.6651	0.6194
197.8828	0.7106
198.1005	0.7841
198.3182	0.7341
198.5358	0.7468
198.7535	0.8002
198.9711	0.8014
199.1888	0.8169
199.4064	0.8022
199.624	0.7332
199.8416	0.851
200.0592	0.8101
200.2767	0.7293
200.4943	0.8992
200.7119	0.8525
200.9294	0.975
201.1469	0.8195
201.3645	0.7548
201.582	0.913
201.7995	0.8578
202.017	0.8943
202.2344	0.7501
202.4519	0.8703
202.6694	0.8124
202.8868	0.8655
203.1042	1.0375
203.3217	1.0517
203.5391	0.9641
203.7565	1.0202
203.9739	0.8942
204.1913	0.7899
204.4086	0.966
204.626	0.9686
204.8433	0.8679
205.0607	0.9836
205.278	0.9978
205.4953	1.0974
205.7126	1.0166
205.9299	1.0567
206.1472	0.9351
206.3644	0.9494
206.5817	1.0592
206.7989	1.0534
207.0162	1.1093
207.2334	1.017
207.4506	1.0344
207.6678	1.0197
207.885	1.1771
208.1022	1.0769
208.3194	1.1275
208.5365	1.0717
208.7537	0.9928
208.9708	1.0354
209.1879	1.0826
209.405	1.0281
209.6222	1.1138
209.8392	1.043
210.0563	1.0485
210.2734	1.0782
210.4905	1.0663
210.7075	0.9746
210.9245	0.9651
211.1416	1.01
211.3586	1.0921
211.5756	1.0614
211.7926	1.1127
212.0096	1.0795
212.2265	0.98
212.4435	1.025
212.6604	1.022
212.8774	1.0134
213.0943	1.0017
213.3112	0.9718
213.5281	1.0266
213.745	0.9299
213.9619	0.9449
214.1788	0.9442
214.3956	0.9289
214.6125	0.9485
214.8293	0.8401
215.0461	0.9148
215.2629	0.8989
215.4798	0.8786
215.6965	0.8293
215.9133	0.8585
216.1301	0.8576
216.3469	0.7975
216.5636	0.7843
216.7803	0.7736
216.9971	0.773
217.2138	0.6943
217.4305	0.7155
217.6472	0.6486
217.8639	0.6592
218.0805	0.6478
218.2972	0.5773
218.5138	0.5465
218.7305	0.5337
218.9471	0.4896
219.1637	0.4522
219.3803	0.4189
219.5969	0.3942
219.8135	0.3693
220.0301	0.3515
220.2466	0.3626
220.4632	0.3409
220.6797	0.3278
220.8962	0.3005
221.1127	0.3021
221.3292	0.3051
221.5457	0.2871
221.7622	0.2975
221.9787	0.2845
222.1951	0.2897
222.4116	0.2729
222.628	0.2743
222.8444	0.2729
223.0608	0.2739
223.2772	0.274
223.4936	0.2605
223.71	0.2634
223.9264	0.2736
224.1427	0.2745
224.3591	0.2692
224.5754	0.2753
224.7917	0.2701
225.008	0.2782
225.2243	0.2795
225.4406	0.2713
225.6569	0.2824
225.8732	0.2922
226.0894	0.2742
226.3057	0.2929
226.5219	0.2941
226.7381	0.2832
226.9543	0.2841
227.1705	0.2921
227.3867	0.3042
227.6029	0.2988
227.8191	0.2996
228.0352	0.3034
228.2513	0.3143
228.4675	0.3206
228.6836	0.3079
228.8997	0.32
229.1158	0.3145
229.3319	0.3246
229.548	0.3184
229.764	0.3255
229.9801	0.3326
230.1961	0.3283
230.4121	0.3443
230.6282	0.3478
230.8442	0.3404
231.0602	0.3585
231.2761	0.3427
231.4921	0.3512
231.7081	0.3648
231.924	0.359
232.14	0.3587
232.3559	0.3652
232.5718	0.3682
232.7877	0.367
233.0036	0.3684
233.2195	0.3598
233.4353	0.3782
233.6512	0.3697
233.867	0.3714
234.0829	0.3814
234.2987	0.3708
234.5145	0.3658
234.7303	0.3816
234.9461	0.4
235.1619	0.3869
235.3776	0.3776
235.5934	0.3931
235.8091	0.386
236.0249	0.3933
236.2406	0.3919
236.4563	0.3925
236.672	0.4133
236.8877	0.4069
237.1034	0.3966
237.319	0.4091
237.5347	0.4078
237.7503	0.413
237.966	0.4114
238.1816	0.4096
238.3972	0.4157
238.6128	0.4148
238.8284	0.4098
239.0439	0.4131
239.2595	0.4284
239.475	0.4064
239.6906	0.4217
239.9061	0.414
240.1216	0.4105
240.3371	0.4197
240.5526	0.4176
240.7681	0.4137
240.9836	0.4104
241.199	0.4187
241.4145	0.3979
241.6299	0.4043
241.8453	0.3959
242.0607	0.3786
242.2761	0.3866
242.4915	0.3839
242.7069	0.3776
242.9223	0.3679
243.1376	0.374
243.353	0.3449
243.5683	0.3567
243.7836	0.335
243.9989	0.338
244.2142	0.3374
244.4295	0.3333
244.6448	0.3257
244.86	0.3237
245.0753	0.2981
245.2905	0.2991
245.5057	0.301
245.721	0.2966
245.9362	0.2803
246.1514	0.2849
246.3665	0.2799
246.5817	0.2701
246.7969	0.2704
247.012	0.2619
247.2271	0.2638
247.4423	0.2595
247.6574	0.2513
247.8725	0.2515
248.0876	0.2551
248.3026	0.247
248.5177	0.2507
248.7328	0.2389
248.9478	0.2401
249.1628	0.239
249.3779	0.2238
249.5929	0.2222
249.8079	0.2305
250.0228	0.2301
250.2378	0.2259
250.4528	0.212
250.6677	0.2254
250.8827	0.2053
251.0976	0.2134
251.3125	0.2151
251.5274	0.208
251.7423	0.2047
251.9572	0.2129
252.172	0.2084
252.3869	0.2007
252.6017	0.2083
252.8166	0.1985
253.0314	0.2037
253.2462	0.2131
253.461	0.2028
253.6758	0.1999
253.8906	0.2043
254.1053	0.1983
254.3201	0.2025
254.5348	0.2006
254.7496	0.2009
254.9643	0.1922
255.179	0.2066
255.3937	0.1989
255.6083	0.1919
255.823	0.1969
256.0377	0.1899
256.2523	0.1912
256.467	0.1917
256.6816	0.1948
256.8962	0.1989
257.1108	0.2043
257.3254	0.1939
257.54	0.1958
257.7545	0.1969
257.9691	0.1983
258.1836	0.1863
258.3981	0.2002
258.6127	0.1942
258.8272	0.1831
259.0417	0.1943
259.2561	0.1986
259.4706	0.1946
259.6851	0.1967
259.8995	0.1904
260.114	0.1882
260.3284	0.1951
260.5428	0.2017
260.7572	0.1976
260.9716	0.1893
261.186	0.2018
261.4003	0.2021
261.6147	0.196
261.829	0.2003
262.0433	0.2008
262.2577	0.192
262.472	0.1948
262.6863	0.1859
262.9005	0.1908
263.1148	0.191
263.3291	0.1898
263.5433	0.1925
263.7576	0.1789
263.9718	0.1958
264.186	0.1805
264.4002	0.1841
264.6144	0.1831
264.8286	0.1857
265.0427	0.1807
265.2569	0.1875
265.471	0.1833
265.6851	0.1828
265.8993	0.1698
266.1134	0.1731
266.3275	0.181
266.5415	0.1744
266.7556	0.1839
266.9697	0.1792
267.1837	0.1816
267.3978	0.1858
267.6118	0.1875
267.8258	0.1844
268.0398	0.1899
268.2538	0.1844
268.4677	0.1897
268.6817	0.1854
268.8957	0.1892
269.1096	0.1812
269.3235	0.1731
269.5374	0.1718
269.7514	0.1683
269.9652	0.1674
270.1791	0.1516
270.393	0.1552
270.6068	0.1469
270.8207	0.1511
271.0345	0.1612
271.2483	0.1548
271.4622	0.1511
271.676	0.1458
271.8897	0.1433
272.1035	0.1396
272.3173	0.1497
272.531	0.1481
272.7448	0.1441
272.9585	0.1403
273.1722	0.1424
273.3859	0.1355
273.5996	0.137
273.8133	0.1385
274.0269	0.143
274.2406	0.1303
274.4542	0.134
274.6679	0.14
274.8815	0.138
275.0951	0.1391
275.3087	0.1401
275.5223	0.1333
275.7358	0.1462
275.9494	0.1433
276.1629	0.132
276.3765	0.1424
276.59	0.1514
276.8035	0.1417
277.017	0.1392
277.2305	0.1403
277.444	0.1375
277.6574	0.1403
277.8709	0.1487
278.0843	0.1452
278.2978	0.1366
278.5112	0.1396
278.7246	0.1381
278.938	0.1382
279.1513	0.1483
279.3647	0.1467
279.5781	0.1433
279.7914	0.1489
280.0047	0.1372
280.2181	0.1477
280.4314	0.1448
280.6447	0.1466
280.8579	0.1503
281.0712	0.1486
281.2845	0.1439
281.4977	0.1488
281.711	0.1509
281.9242	0.1548
282.1374	0.1434
282.3506	0.1455
282.5638	0.1404
282.7769	0.16
282.9901	0.1454
283.2033	0.1591
283.4164	0.1559
283.6295	0.1608
283.8426	0.1524
284.0557	0.1486
284.2688	0.1539
284.4819	0.1516
284.695	0.1551
284.908	0.1569
285.1211	0.1622
285.3341	0.149
285.5471	0.1553
285.7601	0.1487
285.9731	0.1548
286.1861	0.1603
286.3991	0.1628
286.612	0.1501
286.825	0.1575
287.0379	0.1606
287.2508	0.1523
287.4637	0.1537
287.6766	0.1606
287.8895	0.1674
288.1024	0.162
288.3152	0.1569
288.5281	0.1622
288.7409	0.1617
288.9538	0.1605
289.1666	0.1668
289.3794	0.1645
289.5922	0.1638
289.8049	0.1634
290.0177	0.1603
290.2304	0.1593
290.4432	0.1624
290.6559	0.164
290.8686	0.1586
291.0813	0.1643
291.294	0.1644
291.5067	0.1604
291.7194	0.1627
291.932	0.1665
292.1447	0.1621
292.3573	0.1593
292.5699	0.1633
292.7825	0.1636
292.9951	0.1583
293.2077	0.1578
293.4203	0.1643
293.6328	0.17
293.8454	0.1569
294.0579	0.1706
294.2704	0.1661
294.4829	0.1693
294.6954	0.1628
294.9079	0.169
295.1204	0.1646
295.3328	0.1701
295.5453	0.1599
295.7577	0.1584
295.9701	0.164
296.1825	0.1531
296.3949	0.1585
296.6073	0.1687
296.8197	0.1671
297.0321	0.1662
297.2444	0.1542
297.4567	0.1574
297.6691	0.1643
297.8814	0.1571
298.0937	0.1596
298.306	0.1641
298.5182	0.1577
298.7305	0.161
298.9428	0.1631
299.155	0.1592
299.3672	0.1623
299.5794	0.1673
299.7916	0.1637
300.0038	0.1618
300.216	0.1645
300.4282	0.155
300.6403	0.1555
300.8525	0.1611
301.0646	0.1587
301.2767	0.1623
301.4888	0.1573
301.7009	0.1569
301.913	0.1615
302.125	0.1647
302.3371	0.1723
302.5491	0.1544
302.7612	0.1574
302.9732	0.1646
303.1852	0.1575
303.3972	0.1609
303.6092	0.1539
303.8211	0.1616
304.0331	0.1481
304.245	0.1515
304.457	0.1544
304.6689	0.1546
304.8808	0.1548
305.0927	0.1548
305.3046	0.1475
305.5164	0.1506
305.7283	0.1539
305.9401	0.1559
306.152	0.1521
306.3638	0.1559
306.5756	0.141
306.7874	0.1408
306.9992	0.1473
307.2109	0.139
307.4227	0.1416
307.6344	0.1379
307.8462	0.1341
308.0579	0.1321
308.2696	0.1289
308.4813	0.1328
308.693	0.1363
308.9046	0.1195
309.1163	0.1256
309.328	0.12
309.5396	0.1233
309.7512	0.1202
309.9628	0.1192
310.1744	0.1203
310.386	0.1129
310.5976	0.1131
310.8091	0.1155
311.0207	0.1192
311.2322	0.1099
311.4437	0.1208
311.6552	0.1121
311.8667	0.1094
312.0782	0.1106
312.2897	0.1019
312.5012	0.1111
312.7126	0.0989
312.924	0.0966
313.1355	0.1032
313.3469	0.1084
313.5583	0.1019
313.7696	0.1078
313.981	0.0978
314.1924	0.0966
314.4037	0.0965
314.6151	0.09
314.8264	0.1014
315.0377	0.0898
315.249	0.0982
315.4603	0.0992
315.6716	0.0946
315.8828	0.0988
316.0941	0.0961
316.3053	0.0926
316.5165	0.0893
316.7277	0.0917
316.9389	0.1006
317.1501	0.0897
317.3613	0.089
317.5724	0.0926
317.7836	0.0923
317.9947	0.0956
318.2058	0.0902
318.417	0.0893
318.6281	0.0965
318.8391	0.0899
319.0502	0.0876
319.2613	0.0909
319.4723	0.088
319.6834	0.0871
319.8944	0.0971
320.1054	0.0939
320.3164	0.0928
320.5274	0.0866
320.7383	0.0918
320.9493	0.0898
321.1602	0.0895
321.3712	0.1028
321.5821	0.0953
321.793	0.0858
322.0039	0.0886
322.2148	0.0901
322.4257	0.0861
322.6365	0.0977
322.8474	0.0983
323.0582	0.1036
323.269	0.0919
323.4798	0.0982
323.6906	0.0957
323.9014	0.095
324.1122	0.1025
324.3229	0.0943
324.5337	0.0896
324.7444	0.0981
324.9551	0.1003
325.1658	0.0973
325.3765	0.092
325.5872	0.0945
325.7979	0.0997
326.0085	0.1014
326.2192	0.0996
326.4298	0.1055
326.6404	0.0952
326.851	0.0981
327.0616	0.0958
327.2722	0.101
327.4828	0.0909
327.6933	0.1042
327.9039	0.0979
328.1144	0.0943
328.3249	0.1014
328.5354	0.0975
328.7459	0.1009
328.9564	0.0956
329.1669	0.1036
329.3773	0.1055
329.5878	0.1051
329.7982	0.099
330.0086	0.1032
330.219	0.1013
330.4294	0.0928
330.6398	0.1028
330.8502	0.1034
331.0605	0.106
331.2708	0.101
331.4812	0.1015
331.6915	0.1026
331.9018	0.093
332.1121	0.1067
332.3224	0.0988
332.5326	0.0959
332.7429	0.1057
332.9531	0.0987
333.1633	0.1091
333.3735	0.1032
333.5837	0.0967
333.7939	0.103
334.0041	0.1045
334.2143	0.0991
334.4244	0.0975
334.6346	0.0946
334.8447	0.1051
335.0548	0.0993
335.2649	0.091
335.475	0.104
335.685	0.1125
335.8951	0.1022
336.1051	0.0946
336.3152	0.0997
336.5252	0.1047
336.7352	0.1039
336.9452	0.1002
337.1552	0.1049
337.3652	0.1081
337.5751	0.1068
337.7851	0.0996
337.995	0.1079
338.2049	0.0993
338.4148	0.1058
338.6247	0.1051
338.8346	0.1055
339.0445	0.105
339.2543	0.1122
339.4642	0.1011
339.674	0.1095
339.8838	0.1095
340.0936	0.1069
340.3034	0.1192
340.5132	0.1105
340.7229	0.1144
340.9327	0.114
341.1424	0.1128
341.3522	0.1134
341.5619	0.1177
341.7716	0.1226
341.9813	0.1115
342.1909	0.1171
342.4006	0.1093
342.6102	0.1162
342.8199	0.1173
343.0295	0.1134
343.2391	0.1221
343.4487	0.1177
343.6583	0.12
343.8679	0.1223
344.0774	0.1232
344.287	0.1214
344.4965	0.116
344.706	0.1318
344.9155	0.1236
345.125	0.1194
345.3345	0.1237
345.544	0.115
345.7534	0.1243
345.9629	0.1158
346.1723	0.1295
346.3817	0.1299
346.5911	0.1315
346.8005	0.1241
347.0099	0.1262
347.2193	0.1272
347.4286	0.1336
347.638	0.1273
347.8473	0.1246
348.0566	0.1399
348.2659	0.1327
348.4752	0.1315
348.6845	0.126
348.8937	0.138
349.103	0.1337
349.3122	0.1343
349.5214	0.1297
349.7306	0.1352
349.9398	0.1319
350.149	0.1304
350.3582	0.1272
350.5674	0.1412
350.7765	0.1307
350.9856	0.1353
351.1948	0.1394
351.4039	0.1294
351.613	0.1372
351.822	0.1392
352.0311	0.1353
352.2402	0.1476
352.4492	0.1334
352.6582	0.1504
352.8672	0.1452
353.0762	0.145
353.2852	0.155
353.4942	0.1459
353.7032	0.1489
353.9121	0.1506
354.1211	0.1464
354.33	0.1413
354.5389	0.1425
354.7478	0.1447
354.9567	0.1467
355.1655	0.152
355.3744	0.1502
355.5833	0.1518
355.7921	0.1475
356.0009	0.15
356.2097	0.1517
356.4185	0.1502
356.6273	0.1597
356.8361	0.1426
357.0448	0.1618
357.2536	0.1537
357.4623	0.1446
357.671	0.1631
357.8797	0.1686
358.0884	0.1626
358.2971	0.1565
358.5057	0.1695
358.7144	0.1664
358.923	0.1703
359.1316	0.1611
359.3402	0.1727
359.5488	0.1582
359.7574	0.1668
359.966	0.1798
360.1746	0.1652
360.3831	0.18
360.5916	0.1822
360.8002	0.1808
361.0087	0.171
361.2172	0.1753
361.4256	0.1867
361.6341	0.1828
361.8426	0.1891
362.051	0.1754
362.2594	0.1728
362.4678	0.1789
362.6762	0.1831
362.8846	0.1883
363.093	0.186
363.3014	0.1814
363.5097	0.1819
363.718	0.1957
363.9264	0.1805
364.1347	0.1943
364.343	0.188
364.5513	0.1919
364.7595	0.1886
364.9678	0.1977
365.176	0.194
365.3842	0.1869
365.5925	0.1948
365.8007	0.1918
366.0089	0.2052
366.217	0.1888
366.4252	0.2086
366.6333	0.1856
366.8415	0.1928
367.0496	0.214
367.2577	0.2082
367.4658	0.2036
367.6739	0.2121
367.882	0.2115
368.09	0.2128
368.2981	0.2264
368.5061	0.2071
368.7141	0.2079
368.9221	0.2026
369.1301	0.216
369.3381	0.2176
369.5461	0.2147
369.754	0.2107
369.962	0.2054
370.1699	0.2202
370.3778	0.2139
370.5857	0.2126
370.7936	0.2155
371.0015	0.2231
371.2093	0.2112
371.4172	0.2235
371.625	0.2145
371.8328	0.2215
372.0406	0.2232
372.2484	0.2234
372.4562	0.2198
372.664	0.2222
372.8717	0.2115
373.0795	0.219
373.2872	0.2336
373.4949	0.2238
373.7026	0.2259
373.9103	0.2156
374.118	0.2339
374.3256	0.2275
374.5333	0.2311
374.7409	0.2363
374.9485	0.2323
375.1561	0.246
375.3637	0.2366
375.5713	0.2281
375.7789	0.2284
375.9864	0.2276
376.194	0.2414
376.4015	0.2486
376.609	0.2395
376.8165	0.2407
377.024	0.2275
377.2315	0.2325
377.4389	0.2312
377.6464	0.2345
377.8538	0.242
378.0612	0.2391
378.2686	0.2445
378.476	0.2356
378.6834	0.242
378.8908	0.2525
379.0981	0.2494
379.3055	0.2544
379.5128	0.2376
379.7201	0.2417
379.9274	0.2472
380.1347	0.2468
380.342	0.2516
380.5492	0.2526
380.7565	0.2507
380.9637	0.2597
381.1709	0.2468
381.3781	0.2558
381.5853	0.2581
381.7925	0.2504
381.9997	0.2544
382.2068	0.2478
382.4139	0.2588
382.6211	0.2727
382.8282	0.2525
383.0353	0.2599
383.2424	0.2643
383.4494	0.2644
383.6565	0.2571
383.8635	0.2618
384.0706	0.2568
384.2776	0.2603
384.4846	0.2683
384.6916	0.2728
384.8986	0.2685
385.1055	0.2711
385.3125	0.2716
385.5194	0.2608
385.7263	0.2644
385.9333	0.265
386.1402	0.2616
386.347	0.2664
386.5539	0.2787
386.7608	0.2512
386.9676	0.2546
387.1744	0.2581
387.3813	0.2528
387.5881	0.2491
387.7948	0.2531
388.0016	0.2558
388.2084	0.2658
388.4151	0.2478
388.6219	0.263
388.8286	0.2654
389.0353	0.2453
389.242	0.255
389.4487	0.2429
389.6553	0.2611
389.862	0.251
390.0686	0.2507
390.2753	0.2561
390.4819	0.2492
390.6885	0.2515
390.8951	0.2504
391.1016	0.2542
391.3082	0.2493
391.5147	0.2516
391.7213	0.2252
391.9278	0.2437
392.1343	0.2469
392.3408	0.2301
392.5473	0.2391
392.7537	0.2444
392.9602	0.237
393.1666	0.2457
393.373	0.2468
393.5794	0.243
393.7858	0.2225
393.9922	0.2447
394.1986	0.2227
394.4049	0.2438
394.6113	0.2386
394.8176	0.2264
395.0239	0.2291
395.2302	0.2157
395.4365	0.2291
395.6428	0.2266
395.8491	0.2232
396.0553	0.2273
396.2615	0.2198
396.4678	0.2431
396.674	0.2215
396.8802	0.2219
397.0863	0.2219
397.2925	0.2225
397.4987	0.2247
397.7048	0.2162
397.9109	0.2167
398.117	0.215
398.3231	0.2228
398.5292	0.2069
398.7353	0.2252
398.9413	0.2172
399.1474	0.219
399.3534	0.2057
399.5594	0.2106
399.7654	0.2153
399.9714	0.2155
400.1774	0.2199
400.3833	0.2217
400.5893	0.22
400.7952	0.2197
401.0011	0.2102
401.207	0.2197
401.4129	0.2009
401.6188	0.2004
401.8247	0.2113
402.0305	0.2187
402.2364	0.2205
402.4422	0.2194
402.648	0.2288
402.8538	0.2211
403.0596	0.2118
403.2654	0.2111
403.4711	0.202
403.6768	0.2208
403.8826	0.2168
404.0883	0.2107
404.294	0.2241
404.4997	0.2353
404.7054	0.2146
404.911	0.2164
405.1167	0.2209
405.3223	0.2288
405.5279	0.2123
405.7335	0.2144
405.9391	0.2158
406.1447	0.2132
406.3502	0.219
406.5558	0.2188
406.7613	0.2117
406.9668	0.2119
407.1724	0.2054
407.3778	0.2179
407.5833	0.208
407.7888	0.2299
407.9942	0.2181
408.1997	0.2228
408.4051	0.2168
408.6105	0.2098
408.8159	0.2262
409.0213	0.2106
409.2267	0.2259
409.432	0.2306
409.6374	0.2218
409.8427	0.2371
410.048	0.212
410.2533	0.2219
410.4586	0.227
410.6639	0.2081
410.8691	0.2129
411.0744	0.2104
411.2796	0.2062
411.4848	0.2137
411.69	0.2155
411.8952	0.2182
412.1004	0.2022
412.3056	0.2234
412.5107	0.2181
412.7158	0.2132
412.921	0.2132
413.1261	0.2084
413.3312	0.2143
413.5362	0.2023
413.7413	0.2054
413.9464	0.2072
414.1514	0.198
414.3564	0.213
414.5614	0.2199
414.7664	0.2092
414.9714	0.2034
415.1764	0.209
415.3813	0.2118
415.5863	0.2032
415.7912	0.2271
415.9961	0.2036
416.201	0.2129
416.4059	0.2018
416.6108	0.2164
416.8156	0.2083
417.0205	0.2155
417.2253	0.2143
417.4301	0.2172
417.6349	0.2122
417.8397	0.2018
418.0445	0.2099
418.2492	0.2071
418.454	0.2012
418.6587	0.2012
418.8634	0.2105
419.0681	0.1996
419.2728	0.206
419.4775	0.2035
419.6822	0.1997
419.8868	0.1897
420.0915	0.1998
420.2961	0.1982
420.5007	0.1979
420.7053	0.2055
420.9099	0.1876
421.1144	0.2066
421.319	0.1943
421.5235	0.2091
421.728	0.1904
421.9325	0.1936
422.137	0.1849
422.3415	0.1955
422.546	0.201
422.7504	0.1962
422.9549	0.2075
423.1593	0.1987
423.3637	0.1897
423.5681	0.1993
423.7725	0.1951
423.9769	0.1807
424.1812	0.1839
424.3856	0.1779
424.5899	0.1806
424.7942	0.1759
424.9985	0.1889
425.2028	0.1779
425.4071	0.183
425.6113	0.1864
425.8156	0.1798
426.0198	0.1809
426.224	0.1649
426.4282	0.1711
426.6324	0.1768
426.8366	0.1796
427.0407	0.1658
427.2449	0.1709
427.449	0.1677
427.6531	0.173
427.8572	0.1673
428.0613	0.1518
428.2654	0.1617
428.4694	0.1647
428.6735	0.1729
428.8775	0.1589
429.0815	0.1537
429.2855	0.1627
429.4895	0.1447
429.6935	0.1527
429.8975	0.1486
430.1014	0.1498
430.3053	0.1489
430.5093	0.1501
430.7132	0.1481
430.9171	0.1476
431.1209	0.1434
431.3248	0.1441
431.5286	0.1491
431.7325	0.1487
431.9363	0.1447
432.1401	0.139
432.3439	0.1349
432.5477	0.1425
432.7514	0.1417
432.9552	0.1222
433.1589	0.1148
433.3627	0.1328
433.5664	0.1261
433.7701	0.1262
433.9737	0.1076
434.1774	0.1221
434.3811	0.1161
434.5847	0.1196
434.7883	0.1138
434.9919	0.1122
435.1955	0.1113
435.3991	0.1094
435.6027	0.1076
435.8062	0.1129
436.0098	0.1165
436.2133	0.1062
436.4168	0.1049
436.6203	0.1152
436.8238	0.0866
437.0272	0.0971
437.2307	0.1037
437.4341	0.0959
437.6375	0.1015
437.841	0.0939
438.0443	0.0959
438.2477	0.0872
438.4511	0.0973
438.6545	0.0883
438.8578	0.0884
439.0611	0.0784
439.2644	0.0865
439.4677	0.0848
439.671	0.0852
439.8743	0.0879
440.0775	0.0762
440.2808	0.0735
440.484	0.073
440.6872	0.0709
440.8904	0.0702
441.0936	0.0687
441.2967	0.0675
441.4999	0.0673
441.703	0.0663
441.9062	0.07
442.1093	0.0649
442.3124	0.0651
442.5155	0.064
442.7185	0.0504
442.9216	0.06
443.1246	0.055
443.3276	0.0597
443.5307	0.0453
443.7337	0.0552
443.9366	0.0547
444.1396	0.0501
444.3426	0.0496
444.5455	0.0527
444.7484	0.0404
444.9513	0.0442
445.1542	0.0568
445.3571	0.048
445.56	0.0319
445.7628	0.0419
445.9657	0.0572
446.1685	0.039
446.3713	0.0402
446.5741	0.0492
446.7769	0.0413
446.9797	0.0333
447.1824	0.0338
447.3852	0.033
447.5879	0.0405
447.7906	0.0484
447.9933	0.0391
448.196	0.0403
448.3986	0.0309
448.6013	0.0277
448.8039	0.0303
449.0066	0.0291
449.2092	0.0288
449.4118	0.0317
449.6143	0.0296
449.8169	0.0245
450.0195	0.027
450.222	0.008
450.4245	0.0275
450.627	0.0248
450.8295	0.0238
451.032	0.0325
451.2345	0.0138
451.4369	0.0227
451.6394	0.0204
451.8418	0.0181
452.0442	0.0219
452.2466	0.0199
452.449	0.0301
452.6513	0.0214
452.8537	0.0202
453.056	0.0164
453.2583	0.0085
453.4607	0.0171
453.663	0.0196
453.8652	0.0078
454.0675	0.0239
454.2697	0.02
454.472	0.013
454.6742	0.0215
454.8764	0.0147
455.0786	0.0215
455.2808	0.0114
455.4829	0.0002
455.6851	0.0043
455.8872	0.006
456.0893	0.0142
456.2915	0.0072
456.4935	-0.0004
456.6956	0.0073
456.8977	0.0132
457.0997	0.0022
457.3018	0.0184
457.5038	0.0083
457.7058	-0.0017
457.9078	0.0026
458.1098	0.0038
458.3117	0.0144
458.5137	0.0106
458.7156	0.0147
458.9175	-0.0055
459.1194	0.0073
459.3213	0.004
459.5232	0.0074
459.725	-0.0009
459.9269	0.003
460.1287	0.0031
460.3305	-0.0013
460.5323	0.0096
460.7341	0.0051
460.9359	0.0071
461.1376	-0.0015
461.3394	-0.0006
461.5411	-0.0005
461.7428	-0.0061
461.9445	-0.0007
462.1462	0.0082
462.3479	-0.0093
462.5495	0.0064
462.7512	-0.0049
462.9528	0.0036
463.1544	-0.0003
463.356	0.0011
463.5576	-0.0024
463.7592	0.0023
463.9607	0.0019
464.1623	-0.0018
464.3638	-0.0006
464.5653	0.0023
464.7668	0.0002
464.9683	0.0084
465.1697	0.0052
465.3712	0.0036
465.5726	0.0039
465.7741	-0.006
465.9755	-0.0002
466.1769	-0.0147
466.3782	-0.0046
466.5796	-0.0063
466.7809	-0.0048
466.9823	-0.0075
467.1836	0.0033
467.3849	0.0089
467.5862	-0.0062
467.7875	-0.0156
467.9887	0.0019
468.19	-0.0058
468.3912	-0.0033
468.5924	-0.0046
468.7936	-0.0067
468.9948	0.0039
469.196	-0.0075
469.3972	0.0132
469.5983	0.0151
469.7994	-0.0032
470.0006	-0.0076
470.2017	-0.0027
470.4027	-0.0004
470.6038	-0.0126
470.8049	-0.0064
471.0059	-0.0002
471.2069	0.0034
471.408	-0.0037
471.6089	-0.0043
471.8099	-0.0059
472.0109	-0.0069
472.2119	-0.0171
472.4128	-0.0009
472.6137	-0.0118
472.8146	-0.0044
473.0155	-0.011
473.2164	-0.0209
473.4173	-0.0053
473.6181	0.0028
473.819	-0
474.0198	-0.0056
474.2206	0.0015
474.4214	-0.0028
474.6222	-0.0046
474.8229	-0.0091
475.0237	0.0005
475.2244	-0.007
475.4251	0.0009
475.6258	0.0051
475.8265	0.0089
476.0272	-0.0059
476.2278	-0.0029
476.4285	0.007
476.6291	-0.0152
476.8297	-0.0035
477.0303	-0.004
477.2309	0.0027
477.4315	0.0043
477.632	-0.0059
477.8326	-0.006
478.0331	-0.0036
478.2336	0.0027
478.4341	-0.0146
478.6346	-0.0085
478.8351	-0.0054
479.0355	-0.0031
479.236	-0.0164
479.4364	-0.0026
479.6368	-0.0009
479.8372	-0.0069
480.0376	-0.0046
480.2379	-0.0008
480.4383	-0.0002
480.6386	-0.0111
480.8389	-0.0064
481.0392	-0.0069
481.2395	-0.0124
481.4398	0.0018
481.6401	-0.0116
481.8403	-0.0069
482.0405	-0.013
482.2408	0.0061
482.441	-0.0039
482.6411	0.0093
482.8413	-0.0105
483.0415	-0.0055
483.2416	0.0016
483.4417	-0.0085
483.6419	-0.0011
483.8419	-0.0092
484.042	-0.0089
484.2421	-0.0027
484.4422	-0.012
484.6422	-0.0093
484.8422	-0.0075
485.0422	-0.0049
485.2422	-0.0024
485.4422	-0.0079
485.6422	-0.0082
485.8421	-0.0059
486.042	-0.0031
486.242	-0.0064
486.4419	-0.0065
486.6417	-0.0113
486.8416	-0.0059
487.0415	-0.008
487.2413	0.0018
487.4411	-0.0048
487.641	0.0014
487.8408	-0.0033
488.0405	-0.0081
488.2403	-0.0084
488.4401	-0.0149
488.6398	-0.0041
488.8395	-0.0047
489.0392	-0.0068
489.2389	-0.0036
489.4386	-0.0029
489.6383	-0
489.8379	-0.0076
490.0376	-0.0065
490.2372	-0.0071
490.4368	-0.0167
490.6364	-0.0004
490.836	-0.013
491.0355	-0.0068
491.2351	0.0039
491.4346	-0.0126
491.6341	-0.004
491.8336	-0.0064
492.0331	-0.0132
492.2326	-0.0071
492.432	-0.0057
492.6315	-0.0061
492.8309	-0.0043
493.0303	-0.0052
493.2297	-0.0056
493.4291	-0.0139
493.6284	-0.0016
493.8278	-0.0099
494.0271	-0.0025
494.2264	-0.0076
494.4257	-0.0023
494.625	-0.0013
494.8243	-0.0065
495.0236	-0.0174
495.2228	-0.0128
495.422	-0.0025
495.6213	-0.0101
495.8205	0.0004
496.0196	-0.0109
496.2188	-0.0015
496.418	-0.0058
496.6171	-0.002
496.8162	-0.0055
497.0153	-0.0008
497.2144	-0.002
497.4135	-0.0037
497.6126	-0.0046
497.8116	-0.0023
498.0107	-0.0076
498.2097	-0.005
498.4087	-0.0079
498.6077	-0.0019
498.8067	-0.0064
499.0056	-0.0032
499.2046	-0.0039
499.4035	-0.0067
499.6024	-0.0098
499.8013	0.0027
500.0002	-0.0033
500.199	-0.0103
500.3979	0.0006
500.5967	-0.008
500.7956	-0.0141
500.9944	-0.0073
501.1932	-0.005
501.3919	-0.0111
501.5907	-0.0075
501.7895	-0.004
501.9882	-0.0082
502.1869	-0.0051
502.3856	-0.0065
502.5843	-0.0033
502.783	-0.0143
502.9816	-0.0093
503.1803	-0.0002
503.3789	-0.009
503.5775	-0.0051
503.7761	-0.0085
503.9747	-0.0061
504.1732	-0.0005
504.3718	-0.0057
504.5703	-0
504.7689	-0.0073
504.9674	-0.0013
505.1658	-0.0059
505.3643	0.0009
505.5628	-0.0006
505.7612	-0.0067
505.9597	-0.0045
506.1581	-0.0011
506.3565	-0.0061
506.5549	-0.0034
506.7532	-0.0068
506.9516	-0.0084
507.1499	-0.0048
507.3482	-0.0033
507.5465	-0.0003
507.7448	-0.003
507.9431	-0.0007
508.1414	0.0009
508.3396	-0.0042
508.5379	-0.0034
508.7361	-0.0001
508.9343	-0.0059
509.1325	-0.0047
509.3306	-0.005
509.5288	-0.0042
509.7269	-0.0144
509.9251	-0.0016
510.1232	-0.003
510.3213	-0.0136
510.5193	0.0023
510.7174	0.0037
510.9154	-0.0041
511.1135	-0.0104
511.3115	-0.0096
511.5095	-0.0092
511.7075	0.0004
511.9055	-0.0084
512.1034	-0.0084
512.3014	-0.0048
512.4993	-0.0076
512.6972	-0.0001
512.8951	-0.0109
513.093	-0.0014
513.2908	-0.0022
513.4887	-0.0057
513.6865	-0.0079
513.8844	-0.0092
514.0822	-0.0038
514.2799	-0.006
514.4777	-0.0012
514.6755	-0.0077
514.8732	-0.0068
515.0709	-0.0063
515.2687	-0.008
515.4664	-0.0103
515.664	-0.0055
515.8617	-0.0033
516.0594	-0.0088
516.257	-0.0016
516.4546	-0.0097
516.6522	-0.0086
516.8498	-0.0106
517.0474	-0.0007
517.2449	-0.0123
517.4425	-0.0025
517.64	0.0004
517.8375	-0.0074
518.035	0.0005
518.2325	-0.0128
518.43	-0.0033
518.6274	-0.0081
518.8249	-0.0033
519.0223	-0.0054
519.2197	-0.0037
519.4171	-0.0087
519.6145	-0.0003
519.8118	-0.0065
520.0092	-0.0043
520.2065	-0.0079
520.4038	-0.0085
520.6011	-0.0072
520.7984	-0.006
520.9956	-0.0111
521.1929	-0.0018
521.3901	-0.0108
521.5874	-0.0054
521.7846	0.0034
521.9818	-0.0018
522.1789	-0.0032
522.3761	-0.0106
522.5732	-0.0133
522.7704	-0.0027
522.9675	-0.0044
523.1646	-0.0057
523.3617	-0.0049
523.5587	-0.0117
523.7558	-0.0076
523.9528	-0.0042
524.1498	-0.0093
524.3468	-0.0046
524.5438	-0.0069
524.7408	-0.0171
524.9378	-0.0083
525.1347	0.0013
525.3316	0.0023
525.5285	-0.0074
525.7254	-0.0101
525.9223	-0.0038
526.1192	-0.0009
526.316	-0.0013
526.5129	-0.0049
526.7097	-0.0137
526.9065	-0.009
527.1033	-0.0048
527.3	-0.0042
527.4968	-0.0132
527.6935	-0.0022
527.8903	-0.0041
528.087	-0.0093
528.2837	-0.0018
528.4804	-0.0047
528.677	-0.0068
528.8737	-0.008
529.0703	0.0054
529.2669	0.0072
529.4635	-0.0042
529.6601	-0.0008
529.8567	-0.0029
530.0532	-0.0011
530.2498	-0.0067
530.4463	0.0011
530.6428	-0.0049
530.8393	0.0006
531.0358	-0.0058
531.2322	-0.003
531.4287	-0.0119
531.6251	-0.007
531.8215	0.0008
532.0179	-0.0036
532.2143	0.0045
532.4107	-0.0009
532.607	-0.0061
532.8034	-0.0075
532.9997	-0.006
533.196	-0.003
533.3923	0.0029
533.5886	0.0023
533.7848	-0.0024
533.9811	0.0021
534.1773	-0.0053
534.3735	0.0024
534.5697	-0.0028
534.7659	-0.0041
534.9621	0
535.1582	-0.0052
535.3544	-0.0104
535.5505	-0.0052
535.7466	-0.0057
535.9427	-0.0039
536.1387	-0.0056
536.3348	-0.0026
536.5308	-0.006
536.7269	0.0001
536.9229	0.0006
537.1189	-0.0062
537.3148	-0.0011
537.5108	-0.0023
537.7068	-0.0053
537.9027	-0.0022
538.0986	-0.0009
538.2945	-0.0036
538.4904	-0.0042
538.6863	-0.0066
538.8821	-0.0041
539.078	-0.0113
539.2738	-0.0094
539.4696	-0.0035
539.6654	-0.0016
539.8611	-0.0075
540.0569	-0.0074
540.2526	-0.0067
540.4484	0.009
540.6441	0.0016
540.8398	-0.0066
541.0355	-0.0019
541.2311	-0.0002
541.4268	-0.0036
541.6224	-0.0022
541.818	-0.003
542.0136	-0.0009
542.2092	-0.0052
542.4048	-0.0077
542.6003	-0.0082
542.7959	-0.0039
542.9914	-0.0026
543.1869	-0.003
543.3824	-0.0088
543.5779	-0.0076
543.7734	-0.0068
543.9688	-0.013
544.1642	-0.0089
544.3596	-0.0062
544.555	-0.004
544.7504	-0.0085
544.9458	-0.0034
545.1411	0.011
545.3365	-0.003
545.5318	0.0043
545.7271	-0.0009
545.9224	0.0012
546.1177	-0.0108
546.3129	-0.0045
546.5081	-0.0003
546.7034	-0.0075
546.8986	-0.0033
547.0938	-0.0014
547.289	-0.0027
547.4841	-0.0131
547.6793	-0.0086
547.8744	-0.0014
548.0695	-0.0106
548.2646	-0.0093
548.4597	-0.0025
548.6548	0.0004
548.8498	-0.0011
549.0448	0.0002
549.2399	0.0023
549.4349	-0
549.6298	-0.0029
549.8248	0.0007
550.0198	-0.0075
550.2147	-0.0006
550.4096	-0.0119
550.6045	-0.0052
550.7994	0.0019
550.9943	-0.0058
551.1892	-0.0078
551.384	-0.0089
551.5788	-0.0088
551.7737	-0.0054
551.9685	-0.0066
552.1632	-0.008
552.358	-0.007
552.5528	-0.0081
552.7475	-0.0096
552.9422	-0.0096
553.1369	-0.0064
553.3316	-0.0056
553.5263	-0.0032
553.7209	-0.0056
553.9156	0.0022
554.1102	-0.0086
554.3048	-0.0087
554.4994	-0.008
554.694	0.0027
554.8885	-0.0101
555.0831	0.0014
555.2776	0.0001
555.4721	-0.0066
555.6666	-0.0086
555.8611	-0.0058
556.0555	-0.0053
556.25	-0.0068
556.4444	-0.0056
556.6388	-0.0057
556.8332	-0.0026
557.0276	-0.0031
557.222	-0.007
557.4163	-0.0018
557.6107	-0.0084
557.805	-0.0007
557.9993	-0.0063
558.1936	-0.0112
558.3879	0.0026
558.5821	-0.0048
558.7764	-0.0123
558.9706	-0.0011
559.1648	-0.0052
559.359	-0.0042
559.5532	-0.0023
559.7473	-0.0068
559.9415	-0.0082
560.1356	-0.0075
560.3297	-0.0106
560.5238	-0.004
560.7179	-0.0076
560.9119	0.0022
561.106	-0.0027
561.3	0.0016
561.494	-0.0056
561.688	-0.004
561.882	-0.0049
562.076	-0.0046
562.2699	-0.0054
562.4639	-0.0028
562.6578	-0.0116
562.8517	-0.0027
563.0456	-0.002
563.2395	-0.0072
563.4333	0.002
563.6272	-0.0077
563.821	0.0006
564.0148	0.0024
564.2086	-0.0076
564.4024	-0.0061
564.5961	0.0008
564.7899	0.0005
564.9836	0.0085
565.1773	0.0013
565.371	-0.0003
565.5647	-0.0045
565.7584	-0.0031
565.952	0.001
566.1456	-0.0053
566.3393	-0.0028
566.5329	-0.0025
566.7264	0.0007
566.92	-0.0022
567.1136	-0.0095
567.3071	-0.0004
567.5006	-0.003
567.6941	-0.0013
567.8876	-0.004
568.0811	-0.0039
568.2745	-0.0091
568.468	-0.0067
568.6614	-0.0059
568.8548	-0.0089
569.0482	-0.006
569.2416	-0.007
569.4349	-0.002
569.6283	-0.0061
569.8216	-0.0081
570.0149	-0.0026
570.2082	-0.0018
570.4015	0.001
570.5947	0.001
570.788	-0.0076
570.9812	0.0006
571.1744	-0.0086
571.3676	-0.0038
571.5608	-0.0046
571.754	-0.0082
571.9471	-0.01
572.1402	-0.001
572.3333	-0.0045
572.5264	0.0003
572.7195	-0.0042
572.9126	-0.0008
573.1057	-0.0057
573.2987	-0.0003
573.4917	-0.0077
573.6847	0.0006
573.8777	-0.0044
574.0707	-0.0023
574.2636	-0.0055
574.4566	-0.0048
574.6495	-0.003
574.8424	-0.0021
575.0353	-0.0068
575.2281	0.003
575.421	-0.0017
575.6138	-0.0031
575.8067	0.0003
575.9995	0.0021
576.1923	-0.0036
576.385	-0.007
576.5778	-0.0012
576.7706	0.0006
576.9633	-0.0023
577.156	0.0007
577.3487	-0.0007
577.5414	-0.0033
577.734	0.0005
577.9267	-0.0025
578.1193	-0.0025
578.3119	-0.0032
578.5045	-0.0058
578.6971	-0.0031
578.8897	-0.0044
579.0822	-0.0031
579.2747	0.0057
579.4673	-0.0038
579.6598	0.003
579.8522	-0.0005
580.0447	-0.0012
580.2372	-0
580.4296	0.0048
580.622	0.0052
580.8144	-0.0037
581.0068	0.0003
581.1992	0.0008
581.3915	0.0013
581.5839	-0.0048
581.7762	-0.0031
581.9685	-0.0007
582.1608	-0.0013
582.353	0.0012
582.5453	-0.0058
582.7375	0.0021
582.9298	-0.0037
583.122	0.0005
583.3142	-0.0025
583.5063	-0.0004
583.6985	-0.0041
583.8906	-0.0001
584.0827	-0.0042
584.2749	-0.0073
584.4669	-0.0045
584.659	-0.0057
584.8511	-0.0028
585.0431	-0.0055
585.2352	-0.0048
585.4272	-0.0061
585.6192	-0.0031
585.8111	-0.0053
586.0031	-0.0027
586.195	-0.0056
586.387	0.0012
586.5789	-0.0042
586.7708	-0.0086
586.9627	-0.0014
587.1545	-0.0079
587.3464	-0.005
587.5382	-0.0026
587.73	-0.0053
587.9218	-0.0039
588.1136	-0.0026
588.3053	0.0013
588.4971	-0.0064
588.6888	-0.0043
588.8805	-0.0009
589.0722	0.0034
589.2639	0.0006
589.4556	0.0003
589.6472	-0.0024
589.8389	0.0034
590.0305	-0.0058
590.2221	-0.0003
590.4137	-0.0093
590.6052	-0.0076
590.7968	-0.001
590.9883	-0.0058
591.1798	-0.0071
591.3713	-0.006
591.5628	-0.0034
591.7543	-0.0015
591.9458	-0.0023
592.1372	-0.0007
592.3286	-0.002
592.52	-0.0034
592.7114	0.0041
592.9028	-0.0055
593.0941	-0.0036
593.2855	0.0016
593.4768	-0.0014
593.6681	-0.0002
593.8594	0.0033
594.0506	0.0037
594.2419	0.0007
594.4331	-0.0037
594.6244	-0.0045
594.8156	-0.0055
595.0067	-0.0022
595.1979	-0.0052
595.3891	-0.0055
595.5802	-0.0051
595.7713	-0.0009
595.9624	-0.0031
596.1535	-0.0001
596.3446	-0.0008
596.5357	0.0023
596.7267	-0.0032
596.9177	0.0007
597.1087	-0.0002
597.2997	-0.0013
597.4907	-0.0025
597.6817	-0.0025
597.8726	-0.0038
598.0635	-0.0039
598.2544	-0.0041
598.4453	-0.0081
598.6362	-0.0051
598.827	-0.0044
599.0179	-0.0043
599.2087	-0.0105
599.3995	-0.0097
599.5903	-0.0018
599.7811	-0.0074
599.9718	-0.001
600.1626	0.002
600.3533	-0.0002
600.544	-0.0022
600.7347	0.0007
600.9254	0.0003
601.116	-0.0018
601.3067	-0.0029
601.4973	-0.0081
601.6879	0.0019
601.8785	-0.0041
602.0691	-0.0048
602.2596	-0.0018
602.4502	-0.0031
602.6407	-0.0046
602.8312	-0.0019
603.0217	0
603.2122	-0.0002
603.4027	-0.0014
603.5931	-0.0059
603.7835	-0.001
603.9739	-0.0021
604.1643	-0.0045
604.3547	0.0023
604.5451	-0.0036
604.7354	-0.001
604.9257	-0.0052
605.116	0.0007
605.3063	0.0005
605.4966	-0.0022
605.6869	-0.0054
605.8771	-0.0036
606.0673	-0.0027
606.2575	-0.004
606.4477	-0.0082
606.6379	-0.0097
606.8281	-0.0083
607.0182	-0.0081
607.2083	-0.0074
607.3985	-0.0077
607.5885	-0.0011
607.7786	-0.0037
607.9687	-0.0014
608.1587	-0.0039
608.3488	-0.0054
608.5388	0.0005
608.7288	-0.0052
608.9187	-0.0021
609.1087	-0.0082
609.2986	-0.0028
609.4886	-0.0004
609.6785	-0.0003
609.8684	-0.0012
610.0582	-0.0025
610.2481	-0.0047
610.4379	-0.002
610.6278	0.0002
610.8176	-0.0004
611.0074	-0.0022
611.1971	-0.0033
611.3869	-0.0058
611.5766	0.0011
611.7664	0.0035
611.9561	-0.0006
612.1458	0.0032
612.3354	-0.0053
612.5251	-0.007
612.7147	-0.0025
612.9044	-0.0036
613.094	0.0041
613.2836	-0.0049
613.4731	-0.0085
613.6627	-0.0078
613.8522	-0.001
614.0417	-0.0052
614.2313	-0.0061
614.4207	-0.0014
614.6102	-0.0014
614.7997	-0.0027
614.9891	-0.0066
615.1785	-0.005
615.3679	0.0008
615.5573	-0.0044
615.7467	-0.0007
615.9361	-0.0014
616.1254	-0.0052
616.3147	-0.0012
616.504	-0.004
616.6933	-0.0034
616.8826	-0.0034
617.0718	-0.0055
617.2611	0.0016
617.4503	0.0001
617.6395	-0.005
617.8287	-0.0024
618.0179	0.0037
618.207	-0.0073
618.3961	-0.002
618.5853	-0.0041
618.7744	-0.0045
618.9634	0.0031
619.1525	-0.0033
619.3416	-0.0031
619.5306	0.0003
619.7196	-0.0035
619.9086	0.0002
620.0976	-0.0007
620.2866	-0.0024
620.4755	-0.0063
620.6645	-0.0037
620.8534	0.0034
621.0423	-0.0058
621.2312	-0.0082
621.42	0.0011
621.6089	-0.0066
621.7977	-0.0009
621.9865	-0.0004
622.1753	0.0012
622.3641	0.0009
622.5529	-0.0054
622.7416	-0.0021
622.9303	0.0029
623.1191	-0.0046
623.3078	0
623.4964	-0.0002
623.6851	0.0039
623.8737	-0.0046
624.0624	0.0041
624.251	0.0066
624.4396	-0.0006
624.6282	-0.0031
624.8167	-0.0005
625.0053	-0.0003
625.1938	0.0002
625.3823	0.0032
625.5708	-0.0022
625.7593	-0.0016
625.9477	-0.0079
626.1362	-0.0038
626.3246	-0.0024
626.513	-0.0029
626.7014	-0.0067
626.8898	-0.0038
627.0781	-0.0026
627.2665	-0.0037
627.4548	-0.0083
627.6431	-0.0056
627.8314	-0.0062
628.0197	-0.0005
628.2079	-0.0024
628.3962	0.0029
628.5844	-0.0021
628.7726	-0.001
628.9608	-0.0009
629.1489	0.0018
629.3371	0.0028
629.5252	0.0047
629.7134	-0.0006
629.9015	-0.0021
630.0895	-0.004
630.2776	-0.0005
630.4657	0.0007
630.6537	-0.0012
630.8417	-0.0008
631.0297	-0.0013
631.2177	0
631.4057	0.0035
631.5936	0.0027
631.7815	-0.0031
631.9695	-0.0033
632.1574	-0.0077
632.3452	-0.0079
632.5331	-0.006
632.7209	-0.0076
632.9088	-0.002
633.0966	-0.0058
633.2844	-0.0035
633.4722	-0.0009
633.6599	-0.0028
633.8477	-0.0033
634.0354	-0.0057
634.2231	-0.0101
634.4108	-0.0023
634.5985	-0.0017
634.7861	-0.0019
634.9738	-0.0059
635.1614	-0.0042
635.349	-0.0008
635.5366	0.0002
635.7242	0.0002
635.9117	0.0002
636.0993	-0.0049
636.2868	-0.0027
636.4743	0
636.6618	-0.0091
636.8492	-0.0007
637.0367	-0.0006
637.2241	-0.0059
637.4115	-0.0035
637.5989	-0.0003
637.7863	0.0046
637.9737	-0.0055
638.161	-0.0016
638.3484	-0.0037
638.5357	0.0011
638.723	-0.001
638.9103	0.0001
639.0975	0.0056
639.2848	-0.0007
639.472	-0.0004
639.6592	0.0088
639.8464	-0.0039
640.0336	-0.0038
640.2208	-0.0007
640.4079	-0.0047
640.595	-0.0016
640.7821	0.0015
640.9692	0.0044
641.1563	0.002
641.3434	0.0063
641.5304	0.0013
641.7174	0.002
641.9044	0.0055
642.0914	0.0018
642.2784	0.0024
642.4653	0.0019
642.6523	-0.0005
642.8392	0.0093
643.0261	0.0065
643.213	0.0058
643.3999	-0.0009
643.5867	-0.0012
643.7735	0.0013
643.9604	-0.0073
644.1472	-0.0007
644.3339	-0.0037
644.5207	-0.0029
644.7075	-0.0008
644.8942	-0.0042
645.0809	-0.0003
645.2676	-0.0038
645.4543	0.0045
645.6409	0.0008
645.8276	-0.0005
646.0142	0.0001
646.2008	-0.008
646.3874	-0.0004
646.574	-0.0065
646.7605	0.0002
646.9471	-0.0043
647.1336	-0.0017
647.3201	-0.0077
647.5066	-0.0015
647.6931	0.0001
647.8795	-0.0047
648.0659	-0.002
648.2524	-0.0047
648.4388	-0.0034
648.6252	-0.0021
648.8115	-0.0072
648.9979	-0.0043
649.1842	-0.0062
649.3705	-0.0032
649.5568	-0.003
649.7431	-0.0007
649.9294	-0.0039
650.1156	-0.002
650.3018	-0.0064
650.488	-0.0058
650.6742	-0.005
650.8604	-0.0018
651.0466	0.003
651.2327	-0.0022
651.4188	-0
651.6049	0.0027
651.791	-0.0044
651.9771	0.0032
652.1632	0.001
652.3492	0.002
652.5352	-0.0013
652.7212	0.0025
652.9072	0.0009
653.0932	0.0026
653.2791	-0.0018
653.465	-0.0018
653.651	-0.0029
653.8369	-0.0048
654.0227	0.0011
654.2086	0.0013
654.3944	-0.0068
654.5803	-0.0065
654.7661	-0.0075
654.9519	-0.0027
655.1377	-0
655.3234	-0.0001
655.5092	-0.0001
655.6949	-0.0001
655.8806	-0.0001
656.0663	-0.0001
656.2519	-0.0001
656.4376	-0.0031
656.6232	-0.0023
656.8088	-0.0043
656.9945	-0.003
657.18	0.0052
657.3656	-0.0044
657.5511	-0.0037
657.7367	-0.0058
657.9222	-0.0019
658.1077	-0.0003
658.2932	-0.0026
658.4786	-0.0038
658.6641	-0.002
658.8495	0.0011
659.0349	-0.0044
659.2203	-0.0007
659.4057	-0.0062
659.591	-0.0026
659.7764	-0.0024
659.9617	-0.004
660.147	0.0008
660.3323	-0.0046
660.5176	-0.006
660.7028	-0.0056
660.888	-0.0059
661.0733	-0.0027
661.2585	-0.0037
661.4436	-0.003
661.6288	-0.006
661.8139	-0.0005
661.9991	0.0009
662.1842	0.0011
662.3693	0.0031
662.5544	0.0018
662.7394	0.003
662.9245	0.0035
663.1095	0.003
663.2945	-0.0001
663.4795	-0.0032
663.6644	-0.0017
663.8494	-0.0049
664.0343	-0.0032
664.2193	-0.0028
664.4042	-0.008
664.589	-0.0023
664.7739	-0.0032
664.9587	0.0044
665.1436	-0.0003
665.3284	-0.0024
665.5132	-0.0024
665.698	0.001
665.8827	0.0015
666.0675	-0.003
666.2522	-0.0099
666.4369	-0.0041
666.6216	-0.0096
666.8063	-0.0068
666.9909	-0.009
667.1756	-0.0046
667.3602	-0.0067
667.5448	-0.0049
667.7294	-0.0078
667.9139	-0.0053
668.0985	-0.0089
668.283	-0.0057
668.4675	-0.0113
668.652	-0.0101
668.8365	-0.005
669.0209	-0.0081
669.2054	-0.0043
669.3898	-0.0055
669.5742	-0.0099
669.7586	-0.0045
669.943	-0.0073
670.1273	-0.009
670.3117	-0.0038
670.496	-0.0033
670.6803	0.0028
670.8646	-0.006
671.0488	0.0001
671.2331	-0.0022
671.4173	-0.0008
671.6015	-0.0017
671.7857	-0.0064
671.9699	-0.003
672.1541	-0.0016
672.3382	-0.0045
672.5223	-0.0036
672.7064	-0.0033
672.8905	-0.0133
673.0746	-0.0078
673.2587	-0.0165
673.4427	-0.0113
673.6267	-0.0123
673.8107	-0.0145
673.9947	-0.0102
674.1787	-0.0088
674.3626	-0.0092
674.5465	-0.006
674.7304	-0.0015
674.9143	-0.0027
675.0982	-0.0017
675.2821	-0.0068
675.4659	-0.008
675.6497	-0.0012
675.8335	-0.0039
676.0173	-0.0055
676.2011	-0.0053
676.3849	-0.0034
676.5686	-0.0015
676.7523	0.0028
676.936	-0.0012
677.1197	-0.0017
677.3034	-0.0082
677.487	-0.0063
677.6706	-0.0057
677.8542	-0.0021
678.0378	-0.0011
678.2214	-0.0087
678.405	-0.0016
678.5885	-0.011
678.772	-0.0098
678.9555	-0.0061
679.139	-0.0073
679.3225	-0.011
679.5059	-0.0038
679.6894	-0.0042
679.8728	-0.0026
680.0562	0.0037
680.2395	-0.004
680.4229	0.001
680.6062	0.0008
680.7896	-0.002
680.9729	-0.0008
681.1562	0.0017
681.3394	-0.0013
681.5227	-0.0025
681.7059	-0.0012
681.8891	0.0024
682.0723	-0.0055
682.2555	-0.0084
682.4387	-0.0012
682.6218	-0.0068
682.805	-0.005
682.9881	-0.0047
683.1712	0.0044
683.3542	-0.0019
683.5373	-0.0054
683.7203	-0.0024
683.9034	-0.006
684.0864	-0.004
684.2694	-0.0032
684.4523	-0.005
684.6353	-0.0011
684.8182	-0.004
685.0011	-0.008
685.184	-0.0027
685.3669	0.0013
685.5498	-0.0041
685.7326	0.0007
685.9154	-0.0046
686.0982	-0.0055
686.281	-0.0091
686.4638	-0.0007
686.6465	0.0004
686.8293	-0.0025
687.012	-0.0037
687.1947	-0.0054
687.3774	-0.0077
687.56	-0.0095
687.7427	-0.004
687.9253	-0.0027
688.1079	-0.0029
688.2905	-0.0041
688.4731	-0.0014
688.6556	-0.0039
688.8382	0.0016
689.0207	-0.0015
689.2032	0.002
689.3857	-0.0022
689.5681	-0.0009
689.7506	0.0009
689.933	0.0027
690.1154	-0.0023
690.2978	-0.0023
690.4802	-0.0022
690.6626	0.0068
690.8449	0.0014
691.0272	0.004
691.2095	-0.0009
691.3918	0.0007
691.5741	-0.0027
691.7563	0.0018
691.9386	-0.0047
692.1208	-0.0017
692.303	-0.0023
692.4852	-0.0016
692.6673	-0.0023
692.8495	-0.0083
693.0316	0.0006
693.2137	-0.0031
693.3958	0.0013
693.5778	-0.0064
693.7599	-0.0065
693.9419	-0.0065
694.1239	-0.0048
694.3059	-0.0081
694.4879	-0.0066
694.6699	-0.0129
694.8518	-0.0093
695.0337	-0.005
695.2157	-0.0072
695.3975	-0.0085
695.5794	0.0003
695.7613	-0.0091
695.9431	-0.0042
696.1249	-0.003
696.3067	-0.004
696.4885	-0.001
696.6703	-0.0071
696.852	-0.009
697.0337	-0.0004
697.2154	0.0012
697.3971	-0.002
697.5788	-0.0029
697.7605	-0.0056
697.9421	-0.0034
698.1237	-0.0039
698.3053	-0.0067
698.4869	-0.0003
698.6685	-0.0083
698.85	-0.0047
699.0315	-0.0002
699.213	0.0005
699.3945	-0.0006
699.576	0.0074
699.7575	-0.0018
699.9389	-0.003
700.1203	-0.0072
700.3017	-0.008
700.4831	-0.0044
700.6645	-0.0102
700.8458	-0.0043
701.0271	-0.0042
701.2084	-0.0063
701.3897	-0.0007
701.571	0.0013
701.7523	0.0009
701.9335	0.0077
702.1147	0.0064
702.2959	-0.0025
702.4771	-0
702.6583	0.004
702.8394	0.0021
703.0205	0.0047
703.2016	-0.0039
703.3827	0.0057
703.5638	-0.0061
703.7449	-0.0083
703.9259	-0.0033
704.1069	-0.0013
704.2879	0.0001
704.4689	-0.0058
704.6499	-0.0039
704.8308	-0.0004
705.0117	0.0006
705.1927	-0.0031
705.3735	0.0028
705.5544	0.0034
705.7353	0.0017
705.9161	-0.0022
706.0969	0.0044
706.2777	0.0007
706.4585	-0.0019
706.6393	-0.0065
706.82	-0.004
707.0007	-0.0015
707.1815	0.0033
707.3621	-0.0042
707.5428	-0.0038
707.7235	-0.0006
707.9041	0.0028
708.0847	-0.004
708.2653	-0.0015
708.4459	-0.0022
708.6265	-0.0024
708.807	0.0031
708.9875	-0.0044
709.168	-0.0006
709.3485	-0.0041
709.529	-0.0079
709.7095	-0.0082
709.8899	-0.0082
710.0703	0.0032
710.2507	-0.0033
710.4311	-0.0034
710.6115	0.0023
710.7918	-0.0017
710.9721	0.0038
711.1524	0.0004
711.3327	0.004
711.513	-0.008
711.6932	-0.0062
711.8735	0.0034
712.0537	-0.0032
712.2339	-0.003
712.4141	-0.0048
712.5942	0.0011
712.7744	0.0054
712.9545	0.0014
713.1346	-0.0001
713.3147	0.0052
713.4947	0.0088
713.6748	-0.0035
713.8548	-0.0051
714.0348	-0.0015
714.2148	-0.0105
714.3948	-0.0049
714.5748	-0.0099
714.7547	-0.0036
714.9346	-0.0028
715.1145	-0.0059
715.2944	-0.0047
715.4743	-0.0046
715.6541	-0.0054
715.834	-0.0046
716.0138	0.0001
716.1936	0.0003
716.3733	-0.0086
716.5531	-0.0033
716.7328	0.001
716.9126	-0.0057
717.0923	0.0001
717.2719	-0.0066
717.4516	-0.0017
717.6312	0.0022
717.8109	-0.0004
717.9905	-0.0111
718.1701	0.0007
718.3496	-0.0067
718.5292	-0.0052
718.7087	-0.0063
718.8882	-0.007
719.0677	-0.0027
719.2472	0.0006
719.4267	-0.0104
719.6061	-0.0071
719.7856	-0.0026
719.965	-0.0093
720.1443	-0.0092
720.3237	-0.0017
720.5031	-0.0057
720.6824	-0.0025
720.8617	-0.0026
721.041	0.0016
721.2203	-0.0067
721.3995	-0.0071
721.5788	-0.0071
721.758	-0.0013
721.9372	-0.0048
722.1164	-0.0079
722.2956	-0.0054
722.4747	-0.007
722.6538	-0.0105
722.8329	-0.0043
723.012	-0.0102
723.1911	0.0004
723.3702	-0.0019
723.5492	0.0013
723.7282	-0.002
723.9072	0.0004
724.0862	-0.0001
724.2652	0.002
724.4441	-0.0071
724.623	-0.0025
724.8019	-0.0004
724.9808	0.0008
725.1597	0.0015
725.3385	0.0057
725.5174	0.0012
725.6962	-0.0053
725.875	0.0038
726.0538	0.0035
726.2325	-0.0022
726.4112	-0.0016
726.59	-0
726.7687	-0.0029
726.9474	-0.0046
727.126	-0.0032
727.3047	-0.0019
727.4833	0.0002
727.6619	-0.0114
727.8405	-0.0013
728.0191	0.0012
728.1976	-0.0048
728.3762	-0.0074
728.5547	-0.0074
728.7332	-0.0094
728.9116	-0.0141
729.0901	-0.0143
729.2686	-0.0069
729.447	-0.0042
729.6254	-0.0104
729.8038	-0.0094
729.9821	-0.0017
730.1605	-0.0069
730.3388	0.0021
730.5171	-0.0012
730.6954	0.0008
730.8737	0.0022
731.0519	0.0033
731.2302	0.0017
731.4084	0.0065
731.5866	-0.0037
731.7648	0.001
731.9429	0.0005
732.1211	0.0037
732.2992	0.0035
732.4773	0.0002
732.6554	0.0018
732.8335	-0.0082
733.0115	-0.0088
733.1896	-0.0095
733.3676	-0.0038
733.5456	-0.0044
733.7235	-0.0008
733.9015	0.0007
734.0794	-0.0048
734.2574	-0.0015
734.4353	0.0021
734.6131	0.0041
734.791	-0.0015
734.9689	-0.0093
735.1467	0.0038
735.3245	-0.0005
735.5023	0.0002
735.68	-0.0017
735.8578	-0.0018
736.0355	0.0082
736.2132	0.0027
736.3909	-0.0041
736.5686	0.0003
736.7463	-0.0006
736.9239	-0.0033
737.1015	-0.0022
737.2791	-0.0105
737.4567	-0.0053
737.6343	-0.0064
737.8118	-0.0085
737.9894	-0.002
738.1669	-0.0055
738.3444	-0.0009
738.5218	-0.0022
738.6993	-0.0007
738.8767	-0.0008
739.0541	-0.0078
739.2315	-0.0017
739.4089	0.0014
739.5863	-0.0053
739.7636	-0.0032
739.9409	-0.0018
740.1182	0.0019
740.2955	-0.0014
740.4728	0.0011
740.65	0.0031
740.8272	0.0086
741.0044	-0.0011
741.1816	0.0001
741.3588	0.004
741.5359	-0.0013
741.7131	0.005
741.8902	-0.0013
742.0673	0.0027
742.2444	-0.0042
742.4214	-0.0046
742.5985	-0.001
742.7755	-0.004
742.9525	-0.001
743.1295	-0.0063
743.3064	-0.0027
743.4834	-0.0054
743.6603	-0.0051
743.8372	0.0031
744.0141	-0.0018
744.191	0.0021
744.3678	-0.0121
744.5446	-0.0027
744.7215	-0.0028
744.8982	-0.002
745.075	-0.0015
745.2518	-0.0007
745.4285	-0.0034
745.6052	0.0047
745.7819	-0.0004
745.9586	0.0014
746.1353	-0.003
746.3119	-0.002
746.4885	-0.0013
746.6651	-0.0015
746.8417	-0.0098
747.0183	-0.0039
747.1948	-0.006
747.3714	-0.0064
747.5479	-0.0033
747.7244	0.0009
747.9008	0.0043
748.0773	0.005
748.2537	-0.0016
748.4301	0.0042
748.6065	-0.0036
748.7829	0.0068
748.9593	0.0039
749.1356	-0.0031
749.3119	-0.0007
749.4882	0.0052
749.6645	0.0016
749.8408	-0.0017
750.017	-0.0058
750.1933	-0.0073
750.3695	-0.0074
750.5457	-0.0044
750.7218	-0.0083
750.898	-0.0017
751.0741	-0.0054
751.2502	-0.0048
751.4263	-0.002
751.6024	-0.0004
751.7784	-0.0058
751.9545	-0.0037
752.1305	0.0059
752.3065	-0.0012
752.4825	0
752.6584	-0.0028
752.8344	0.0046
753.0103	-0.0001
753.1862	0.0044
753.3621	-0.0003
753.5379	-0.0044
753.7138	0.0083
753.8896	-0.0144
754.0654	-0.0088
754.2412	-0.0165
754.417	-0.0084
754.5927	-0.0072
754.7685	-0.0076
754.9442	-0.0071
755.1199	-0.0098
755.2956	-0.0061
755.4712	-0.0068
755.6469	-0.0077
755.8225	-0.0088
755.9981	-0.0061
756.1736	-0.0041
756.3492	-0.0052
756.5248	-0.0017
756.7003	-0.0068
756.8758	-0.0101
757.0513	-0.0081
757.2267	-0.0133
757.4022	-0.0117
757.5776	-0.01
757.753	-0.0111
757.9284	-0.0115
758.1038	-0.0057
758.2791	-0.0086
758.4545	-0.0085
758.6298	-0.0078
758.8051	-0.0079
758.9803	-0.0096
759.1556	-0.0042
759.3308	-0.0078
759.506	-0.005
759.6812	-0.0133
759.8564	-0.0064
760.0316	-0.0107
760.2067	-0.004
760.3819	0.0007
760.557	-0.0047
760.732	-0.0101
760.9071	-0.0153
761.0821	-0.0134
761.2572	-0.0116
761.4322	-0.0121
761.6072	-0.0137
761.7821	-0.0101
761.9571	-0.0132
762.132	-0.0135
762.3069	-0.0006
762.4818	-0.0024
762.6567	-0.013
762.8316	-0.0053
763.0064	-0.0019
763.1812	-0.0003
763.356	-0.0008
763.5308	0.0002
763.7055	0.0102
763.8803	-0.0029
764.055	0.0014
764.2297	-0.0004
764.4044	-0.0015
764.579	0.001
764.7537	-0.01
764.9283	-0.0061
765.1029	0.0001
765.2775	-0.0019
765.4521	0.0081
765.6266	0.0012
765.8011	0.0063
765.9756	0.002
766.1501	0.0063
766.3246	-0.007
766.4991	-0.0031
766.6735	-0.0089
766.8479	-0.0089
767.0223	0.0071
767.1967	-0.0082
767.371	-0.0029
767.5454	-0.0039
767.7197	-0.0063
767.894	0.0039
768.0683	-0.0006
768.2425	-0.0042
768.4168	-0.0037
768.591	-0.0044
768.7652	-0.0052
768.9394	0.0006
769.1135	0.0072
769.2877	0.0022
769.4618	0.0079
769.6359	-0.0035
769.81	-0.0011
769.984	-0.0111
770.1581	0.0041
770.3321	0.0018
770.5061	-0
770.6801	-0.0028
770.8541	0.0019
771.028	0.0074
771.202	0.006
771.3759	-0.0003
771.5498	0.002
771.7236	0.0054
771.8975	0.0029
772.0713	0.0007
772.2451	0.0037
772.4189	-0.0016
772.5927	-0.0046
772.7665	0.0012
772.9402	0.002
773.1139	0.0047
773.2876	0.0003
773.4613	-0.0068
773.635	-0.0005
773.8086	0.0042
773.9822	0.007
774.1558	-0.0005
774.3294	0.0084
774.503	0.0085
774.6765	-0.0031
774.8501	0.0017
775.0236	-0.0153
775.1971	-0.0064
775.3705	-0.0037
775.544	-0.0011
775.7174	0.0052
775.8908	-0.0015
776.0642	-0.0001
776.2376	-0.0017
776.4109	-0.0073
776.5843	0.0084
776.7576	0.0014
776.9309	-0.0009
777.1041	-0.0028
777.2774	0.0038
777.4506	0.0045
777.6238	0.003
777.797	-0.0007
777.9702	-0.0028
778.1434	-0.0099
778.3165	-0.0014
778.4896	-0.0105
778.6627	-0.0006
778.8358	-0.0083
779.0089	-0.0009
779.1819	0.0026
779.3549	-0.0112
779.5279	0.0025
779.7009	-0.0032
779.8739	-0.0059
780.0468	-0.0091
780.2197	-0.0056
780.3926	-0.0006
780.5655	-0.0096
780.7384	-0.008
780.9112	-0.0112
781.0841	0.0008
781.2569	0.0007
781.4297	-0.0169
781.6024	-0.0002
781.7752	-0.0064
781.9479	-0.0084
782.1206	-0.0023
782.2933	-0.0026
782.466	-0.0004
782.6386	-0.0013
782.8113	-0.0138
782.9839	-0.0075
783.1565	-0.0145
783.329	-0.0073
783.5016	-0.0017
783.6741	-0.0067
783.8466	-0.0085
784.0191	-0.014
784.1916	0.0012
784.3641	0.0083
784.5365	-0.0006
784.7089	0.0005
784.8813	0.013
785.0537	0.0066
785.2261	0.0066
785.3984	-0.003
785.5707	0.0078
785.743	0.0004
785.9153	-0.0016
786.0876	-0.0007
786.2598	0.0071
786.432	-0.0002
786.6042	0.0012
786.7764	0.0012
786.9486	0.0001
787.1207	-0.0009
787.2928	-0.0004
787.4649	-0.006
787.637	-0.0064
787.8091	0.0016
787.9811	0.0082
788.1532	-0.0062
788.3252	-0.0094
788.4972	-0.0011
788.6691	-0.0016
788.8411	0.0036
789.013	-0.0062
789.1849	0.0075
789.3568	-0.0058
789.5287	-0.0058
789.7005	-0.0015
789.8723	0.0016
790.0442	-0.003
790.2159	0.0035
790.3877	-0.0025
790.5595	-0.0005
790.7312	-0.0029
790.9029	-0.0037
791.0746	-0.0055
791.2463	-0.0031
791.4179	-0.0041
791.5896	0.0036
791.7612	0.0008
791.9328	0.0016
792.1044	-0.0086
792.2759	0.0102
792.4474	-0.0007
792.619	-0.0079
792.7905	-0.0071
792.9619	-0.003
793.1334	-0.0013
793.3048	-0.0059
793.4762	-0.0055
793.6476	-0.0116
793.819	-0.0103
793.9904	-0.0114
794.1617	-0.0093
794.333	-0.0119
794.5043	-0.0018
794.6756	0.0037
794.8469	-0.0009
795.0181	-0.0068
795.1893	-0.0026
795.3605	-0.0065
795.5317	-0.0061
795.7029	-0.0069
795.874	-0.011
796.0452	-0.0114
796.2163	-0.007
796.3873	-0.0068
796.5584	-0.0152
796.7294	-0.0018
796.9005	-0.0063
797.0715	-0.0188
797.2425	-0.018
797.4134	-0.0091
797.5844	-0.014
797.7553	-0.0027
797.9262	-0.0158
798.0971	-0.0076
798.2679	-0.0047
798.4388	-0.0123
798.6096	-0.019
798.7804	-0.0078
798.9512	-0.0175
799.122	-0.0049
799.2927	-0.0159
799.4635	-0.0018
799.6342	-0.0048
799.8049	-0.0062
799.9755	-0.0049
800.1462	-0.0153
800.3168	-0.01
800.4874	-0.0102
800.658	-0.0145
800.8286	-0.0049
800.9991	-0.0169
801.1696	-0.0133
801.3402	-0.0087
801.5106	-0.016
801.6811	-0.0229
801.8516	-0.0121
802.022	-0.0221
802.1924	-0.0275
802.3628	-0.0204
802.5332	-0.0021
802.7035	-0.0181
802.8739	-0.0129
803.0442	-0.0102
803.2145	-0.0079
803.3847	-0.0203
803.555	-0.0177
803.7252	-0.0179
803.8954	-0.017
804.0656	-0.0102
804.2358	-0.011
804.4059	-0.0063
804.5761	-0.0027
804.7462	-0.0147
804.9163	-0.0124
805.0864	-0.0078
805.2564	-0.0117
805.4264	-0.018
805.5965	-0.0144
805.7665	-0.0124
805.9364	-0.0043
806.1064	-0.0123
806.2763	-0.0087
806.4462	-0.0074
806.6161	-0.0142
806.786	-0.0061
806.9559	-0.0032
807.1257	-0.015
807.2955	-0.0129
807.4653	-0.0088
807.6351	-0.0004
807.8048	0.0005
807.9746	-0.0004
808.1443	-0.0009
808.314	-0.0034
808.4837	0.0069
808.6533	-0.0021
808.8229	0.0009
808.9926	-0.0001
809.1622	-0.0032
809.3317	0.0011
809.5013	0.0061
809.6708	0.0009
809.8403	0.0074
810.0098	0.0086
810.1793	-0.0082
810.3488	0.0067
810.5182	0.0003
810.6876	-0.0067
810.857	-0.0166
811.0264	-0.0191
811.1958	0.0014
811.3651	-0.0109
811.5344	0.0002
811.7037	-0.0216
811.873	-0.0165
812.0422	-0.0058
812.2115	0.0089
812.3807	0.0016
812.5499	-0.0012
812.7191	-0.0122
812.8882	-0.0026
813.0574	-0.0146
813.2265	0.0069
813.3956	-0.0039
813.5646	-0.0112
813.7337	0.0074
813.9027	0.0036
814.0718	-0.0103
814.2407	0.0164
814.4097	-0.0147
814.5787	-0.0127
814.7476	-0.0023
814.9165	-0.002
815.0854	-0.0204
815.2543	0.006
815.4232	-0.0115
815.592	-0.0016
815.7608	-0.0015
815.9296	0.0022
816.0984	-0.0022
816.2671	0.0048
816.4359	-0.0025
816.6046	0.0058
816.7733	0.0029
816.942	0.0022
817.1106	-0.0005
817.2793	-0.0013
817.4479	-0.0194
817.6165	-0.0111
817.785	-0.0054
817.9536	-0.0066
818.1221	-0.0191
818.2906	-0.0008
818.4591	-0.0184
818.6276	-0.0073
818.7961	-0.0146
818.9645	-0.006
819.1329	-0.0022
819.3013	-0.0089
819.4697	-0.0108
819.638	-0.0107
819.8064	-0.0088
819.9747	0.0009
820.143	0.0032
820.3113	-0.0093
820.4795	0.0017
820.6477	-0.0037
820.816	-0.0009
820.9842	-0.0075
821.1523	-0.0109
821.3205	-0.0023
821.4886	0.0003
821.6567	-0.0098
821.8248	-0.0121
821.9929	0.0023
822.1609	-0.0017
822.329	-0.0071
822.497	-0.0055
822.665	-0.015
822.833	-0.0207
823.0009	-0.0064
823.1688	-0.0195
823.3367	-0.0037
823.5046	0.0012
823.6725	-0.0197
823.8404	-0.0045
824.0082	-0.0023
824.176	-0.0042
824.3438	-0.0097
824.5116	0.0111
824.6793	0.0045
824.847	-0.0005
825.0147	-0.0006
825.1824	-0.0175
825.3501	-0.0069
825.5177	-0.0267
825.6854	0.008
825.853	0.0022
826.0206	0.0017
826.1881	-0.0038
826.3557	0.0001
826.5232	-0.0058
826.6907	-0.0074
826.8582	0.0003
827.0257	-0.0182
827.1931	0.0136
827.3605	-0.0007
827.528	-0.0002
827.6953	0.0031
827.8627	0.0092
828.03	-0.0088
828.1974	-0.002
828.3647	0.0141
828.532	-0.0032
828.6992	-0.0115
828.8665	-0.0084
829.0337	-0.0106
829.2009	-0.0165
829.3681	-0.0227
829.5352	-0.0205
829.7024	-0.0004
829.8695	-0.0207
830.0366	-0.0277
830.2037	0.0002
830.3707	-0.0176
830.5378	-0.0162
830.7048	-0.0245
830.8718	-0.0251
831.0388	-0.0151
831.2057	-0.0133
831.3727	-0.0297
831.5396	0.0066
831.7065	0.0085
831.8734	0.014
832.0402	-0.0236
832.2071	0.0002
832.3739	0.0149
832.5407	-0.003
832.7075	-0.0218
832.8742	0.0085
833.041	-0.0046
833.2077	-0.0183
833.3744	-0.0091
833.541	0.0132
833.7077	-0.0104
833.8743	-0.0037
834.0409	0.014
834.2075	0.0026
834.3741	-0.0106
834.5407	0.0017
834.7072	-0.0055
834.8737	-0.0139
835.0402	-0.0148
835.2067	-0.0138
835.3731	-0.01
835.5395	-0.0065
835.706	-0.0186
835.8723	-0.0205
836.0387	-0.0106
836.2051	-0.0234
836.3714	0.0214
836.5377	0.0169
836.704	-0.0135
836.8703	-0.03
837.0365	0.0141
837.2027	-0.011
837.3689	-0.0144
837.5351	0.0005
837.7013	-0.0175
837.8674	0.001
838.0335	-0.0154
838.1997	0.0143
838.3657	0.0049
838.5318	-0.0088
838.6978	-0.0279
838.8639	0.015
839.0299	-0.0087
839.1958	0.0161
839.3618	0.0231
839.5277	0.0023
839.6937	-0.0165
839.8596	-0.012
840.0254	-0.0169
840.1913	0.0065
840.3571	0.0263
840.523	0.0011
840.6888	-0.0041
840.8545	-0.0183
841.0203	-0.0138
841.186	-0.0099
841.3517	-0.0158
841.5174	-0.0009
841.6831	0.0131
841.8488	0.0196
842.0144	0.0152
842.18	0.0037
842.3456	-0.002
842.5112	-0.0016
842.6767	-0.0119
842.8422	0.0142
843.0077	-0.0266
843.1732	-0.0176
843.3387	-0.0082
843.5042	-0.0044
843.6696	0.0041
843.835	-0.0245
844.0004	0.036
844.1657	0.0125
844.3311	-0.008
844.4964	-0.0096
844.6617	0.0121
844.827	0.0219
844.9923	0.0073
845.1575	0.0118
845.3227	0.0036
845.4879	-0.0085
845.6531	0.0063
845.8183	-0.0439
845.9834	-0.0243
846.1485	0.0126
846.3136	-0.0517
846.4787	-0.0107
846.6438	-0.0029
846.8088	0.0197
846.9738	0.0016
847.1388	0.0073
847.3038	0.009
847.4687	0.0047
847.6337	0.0369
847.7986	0.0205
847.9635	-0.001
848.1284	-0.0043
848.2932	0.0062
848.458	0.0076
848.6228	0.0407
848.7876	-0.0365
848.9524	0.032
849.1172	-0.0192
849.2819	0.0239
849.4466	-0.0056
849.6113	-0.001
849.7759	-0.0331
849.9406	0.007
850.1052	0.024
850.2698	-0.0088
850.4344	0.0314
850.599	-0.0424
850.7635	0.0164
850.928	-0.0291
851.0925	0.0253
851.257	0.012
851.4215	0.0318
851.5859	0.0212
851.7503	-0.0231
851.9147	0.0353
852.0791	-0.0268
852.2434	-0.0202
852.4078	-0.0141
852.5721	-0.0057
852.7364	-0.0779
852.9007	-0.0126
853.0649	-0.0102
853.2291	-0.0178
853.3934	-0.0001
853.5575	0.0072
853.7217	-0.0516
853.8859	0.037
854.05	0.0046
854.2141	0.0065
854.3782	0.0505
854.5423	-0.0446
854.7063	0.0122
854.8703	-0.0188
855.0343	0.0164
855.1983	-0.0016
855.3623	-0.0348
855.5262	0.0823
855.6901	0.0178
855.854	0.0423
856.0179	0.0799
856.1818	0.0055
856.3456	-0.0907
856.5094	-0.0388
856.6732	-0.0402
856.837	0.0087
857.0008	0.0319
857.1645	-0.0254
857.3282	0.0356
857.4919	-0.0234
857.6556	0.1059
857.8192	0.0131
857.9828	0.0386
858.1465	0.0273
858.31	0.0121
858.4736	-0.0864
858.6372	0.043
858.8007	0.0063
858.9642	-0.0849
859.1277	0.1021
859.2911	-0.0476
859.4546	0.0218
859.618	-0.013
859.7814	0.0192
859.9448	-0.1143
860.1081	-0.0741
860.2715	0.047
860.4348	0.0098
860.5981	-0.0196
860.7614	-0.0428
860.9246	-0.059
861.0879	-0.0848
861.2511	-0.0671
861.4143	-0.0739
861.5774	-0.0408
861.7406	0.0507
861.9037	-0.2048
862.0668	-0.044
862.2299	0.0114
862.393	-0.0125
862.556	0.0924
862.7191	-0.073
862.8821	0.0493
863.0451	0.0352
863.208	-0.1014
863.371	0.0168
863.5339	-0.1101
863.6968	-0.0207
863.8597	-0.0093
864.0225	-0.0909
864.1854	0.0492
864.3482	-0.0456
864.511	-0.1409
864.6737	-0.0044
864.8365	-0.0711
864.9992	-0.0506
865.1619	-0.0307
865.3246	-0.1303
865.4873	0.0878
865.65	0.0725
865.8126	-0.0354
865.9752	-0.1665
866.1378	-0.1726
866.3004	-0.0343
866.4629	-0.2179
866.6254	0.0332
866.7879	-0.0556
866.9504	-0.0534
867.1129	0.0918
867.2753	-0.1006
867.4377	-0.136
867.6001	-0.0089
867.7625	0.0768
867.9249	0.0639
868.0872	0.1567
868.2495	-0.119
868.4118	0.081
868.5741	-0.0971
868.7363	0.1962
868.8986	0.0149
869.0608	-0.0367
869.223	0.0552
869.3851	-0.0422
869.5473	-0.111
869.7094	-0.149
869.8715	-0.0004
870.0336	0.0351
870.1957	-0.1823
870.3577	-0.0426
870.5197	0.8233
870.6817	-0.2915
870.8437	-0.2545
871.0057	0.0189
871.1676	0.0163
871.3295	-0.2782
871.4914	-0.1823
871.6533	0.034
871.8151	-0.0849
871.977	-0.0344
872.1388	0.0141
872.3006	-0.1639
872.4623	-0.132
872.6241	-0.1147
872.7858	-0.0467
872.9475	-0.1931
873.1092	-0.2087
873.2709	-0.0177
873.4325	-0.2953
873.5941	-0.3995
873.7557	-0.0529
873.9173	-0.0552
874.0789	-0.133
874.2404	-0.1003
874.4019	-0.2386
874.5634	0.0265
874.7249	-0.1811
874.8863	-0.1933
875.0478	0.0184
875.2092	-0.1201
875.3706	-0.1416
875.5319	-0.1625
875.6933	-0.3331
875.8546	-0.2266
876.0159	0.042
876.1772	-0.381
876.3385	-0.2764
876.4997	-0.1568
876.6609	-0.4031
876.8221	0.1343
876.9833	0.6779
877.1445	-0.2712
877.3056	-0.2371
877.4667	-0.9218
877.6278	0.3671
877.7889	0.175
877.9499	-0.7183
878.111	-0.2505
878.272	0.2452
878.433	0.1369
878.5939	0.0432
878.7549	-0.212
878.9158	-0.15
879.0767	0.0715
879.2376	0.012
879.3984	-0.3324
879.5593	0.3406
879.7201	-0
879.8809	-0.0122
880.0417	-0.12
880.2024	0.0855
880.3632	-0.3622
880.5239	-0
880.6846	-0.3439
880.8452	0.1326
881.0059	-0.1355
881.1665	-0
881.3271	-0.3977
881.4877	-0.0508
881.6483	-0.2023
881.8088	-0.222
881.9693	0.1326
882.1298	0.1326
882.2903	0.1326
