Data from MonoPyChalIsomerACN10uM450nmA_Absorbance_13-11-30-891.txt Node
Date: Tue Jul 09 13:11:30 BST 2024
User: LASERRRRR
Spectrometer: FLMT03099
Trigger mode: 0
Integration Time (sec): 2.000000E-1
Scans to average: 1
Electric dark correction enabled: true
Nonlinearity correction enabled: false
Boxcar width: 0
XAxis mode: Wavelengths
Number of Pixels in Spectrum: 3648
>>>>>Begin Spectral Data<<<<<
179.3399	-0
179.5586	-0
179.7771	-0
179.9957	0.2058
180.2143	-0
180.4329	0.4511
180.6514	0.8086
180.8699	0.2668
181.0885	0.1774
181.307	-0
181.5255	-0
181.744	-0.1009
181.9625	0.3506
182.181	-0.2973
182.3994	-0
182.6179	-0.1519
182.8363	-0
183.0547	0.2907
183.2732	0.1475
183.4916	0.1188
183.71	0.1058
183.9284	0.011
184.1467	0.1257
184.3651	0.1094
184.5835	0.0884
184.8018	0.128
185.0201	0.1724
185.2385	-0.0743
185.4568	0.0208
185.6751	0.123
185.8934	-0.0046
186.1117	0.008
186.3299	-0.1256
186.5482	0.0375
186.7664	-0.0582
186.9847	0.0698
187.2029	0.0327
187.4211	-0.0038
187.6393	-0.0126
187.8575	0.1638
188.0757	0.0791
188.2939	0.0285
188.512	0.0561
188.7302	0.0161
188.9483	0.0919
189.1665	0.1679
189.3846	0.1267
189.6027	0.1525
189.8208	0.2191
190.0389	0.1448
190.257	0.1828
190.475	0.302
190.6931	0.1605
190.9111	0.2671
191.1292	0.4704
191.3472	0.3785
191.5652	0.2782
191.7832	0.339
192.0012	0.4209
192.2192	0.5257
192.4371	0.4391
192.6551	0.3904
192.873	0.4514
193.091	0.4859
193.3089	0.5231
193.5268	0.6925
193.7447	0.5795
193.9626	0.5492
194.1805	0.6263
194.3984	0.5517
194.6162	0.5835
194.8341	0.6069
195.0519	0.6517
195.2697	0.5451
195.4875	0.5539
195.7054	0.6068
195.9231	0.5786
196.1409	0.6175
196.3587	0.7294
196.5765	0.6772
196.7942	0.7358
197.012	0.6283
197.2297	0.6765
197.4474	0.7594
197.6651	0.718
197.8828	0.8029
198.1005	0.8459
198.3182	0.7666
198.5358	0.7521
198.7535	0.8035
198.9711	0.8092
199.1888	0.7492
199.4064	0.7858
199.624	0.7071
199.8416	0.7815
200.0592	0.854
200.2767	0.8672
200.4943	0.8499
200.7119	0.887
200.9294	0.924
201.1469	0.9031
201.3645	0.814
201.582	0.9286
201.7995	0.7077
202.017	0.9677
202.2344	0.8964
202.4519	0.9872
202.6694	0.9359
202.8868	0.8626
203.1042	0.9778
203.3217	0.9941
203.5391	0.965
203.7565	0.9588
203.9739	0.8541
204.1913	0.8501
204.4086	0.8989
204.626	1.0815
204.8433	0.8828
205.0607	1.0338
205.278	0.8987
205.4953	1.0959
205.7126	0.8919
205.9299	1.06
206.1472	1.0126
206.3644	1.0011
206.5817	1.0792
206.7989	1.0251
207.0162	1.1632
207.2334	0.8922
207.4506	0.9335
207.6678	1.1327
207.885	1.1029
208.1022	1.0653
208.3194	1.0617
208.5365	1.0726
208.7537	0.9378
208.9708	1.053
209.1879	0.9535
209.405	1.1164
209.6222	1.0583
209.8392	1.0542
210.0563	1.0308
210.2734	0.9823
210.4905	1.1813
210.7075	0.9738
210.9245	0.9919
211.1416	1.1006
211.3586	1.133
211.5756	1.132
211.7926	1.0472
212.0096	1.0735
212.2265	0.997
212.4435	0.9928
212.6604	1.0659
212.8774	1.0248
213.0943	1.0062
213.3112	0.9317
213.5281	1.0682
213.745	1.0044
213.9619	0.9399
214.1788	1.0425
214.3956	0.9599
214.6125	0.9172
214.8293	0.8741
215.0461	0.9113
215.2629	0.891
215.4798	0.8485
215.6965	0.8524
215.9133	0.8816
216.1301	0.8232
216.3469	0.8268
216.5636	0.8017
216.7803	0.8031
216.9971	0.7579
217.2138	0.7537
217.4305	0.701
217.6472	0.6646
217.8639	0.64
218.0805	0.6123
218.2972	0.5619
218.5138	0.5401
218.7305	0.5125
218.9471	0.4889
219.1637	0.4479
219.3803	0.4198
219.5969	0.3884
219.8135	0.3762
220.0301	0.3546
220.2466	0.3574
220.4632	0.3329
220.6797	0.3301
220.8962	0.3089
221.1127	0.3117
221.3292	0.2959
221.5457	0.2926
221.7622	0.2847
221.9787	0.2707
222.1951	0.2784
222.4116	0.2672
222.628	0.2776
222.8444	0.261
223.0608	0.2658
223.2772	0.273
223.4936	0.2493
223.71	0.2624
223.9264	0.2755
224.1427	0.2556
224.3591	0.2786
224.5754	0.2798
224.7917	0.2703
225.008	0.2772
225.2243	0.2723
225.4406	0.2863
225.6569	0.2689
225.8732	0.2862
226.0894	0.2632
226.3057	0.2944
226.5219	0.2788
226.7381	0.2824
226.9543	0.2903
227.1705	0.2885
227.3867	0.3038
227.6029	0.2976
227.8191	0.2945
228.0352	0.2978
228.2513	0.315
228.4675	0.303
228.6836	0.3191
228.8997	0.3137
229.1158	0.311
229.3319	0.3091
229.548	0.3288
229.764	0.3167
229.9801	0.3302
230.1961	0.3198
230.4121	0.3293
230.6282	0.3355
230.8442	0.3444
231.0602	0.3365
231.2761	0.3421
231.4921	0.3484
231.7081	0.3544
231.924	0.3578
232.14	0.3529
232.3559	0.3637
232.5718	0.3602
232.7877	0.3626
233.0036	0.3685
233.2195	0.3818
233.4353	0.3631
233.6512	0.3673
233.867	0.3682
234.0829	0.3804
234.2987	0.3736
234.5145	0.3788
234.7303	0.3938
234.9461	0.392
235.1619	0.3814
235.3776	0.3835
235.5934	0.3936
235.8091	0.3866
236.0249	0.3795
236.2406	0.3891
236.4563	0.3871
236.672	0.3905
236.8877	0.4023
237.1034	0.4072
237.319	0.4167
237.5347	0.4076
237.7503	0.4105
237.966	0.4033
238.1816	0.4081
238.3972	0.4103
238.6128	0.4135
238.8284	0.4212
239.0439	0.3954
239.2595	0.4325
239.475	0.4151
239.6906	0.4125
239.9061	0.4139
240.1216	0.4153
240.3371	0.4197
240.5526	0.4191
240.7681	0.415
240.9836	0.4126
241.199	0.3997
241.4145	0.401
241.6299	0.4014
241.8453	0.3945
242.0607	0.3984
242.2761	0.3955
242.4915	0.3837
242.7069	0.3847
242.9223	0.3855
243.1376	0.373
243.353	0.3651
243.5683	0.3523
243.7836	0.3512
243.9989	0.354
244.2142	0.3469
244.4295	0.3395
244.6448	0.326
244.86	0.33
245.0753	0.3121
245.2905	0.3089
245.5057	0.3228
245.721	0.3066
245.9362	0.294
246.1514	0.2938
246.3665	0.2859
246.5817	0.2725
246.7969	0.277
247.012	0.2791
247.2271	0.274
247.4423	0.2752
247.6574	0.2706
247.8725	0.2559
248.0876	0.2522
248.3026	0.2527
248.5177	0.249
248.7328	0.2476
248.9478	0.2505
249.1628	0.2393
249.3779	0.2321
249.5929	0.2395
249.8079	0.231
250.0228	0.2371
250.2378	0.2303
250.4528	0.2178
250.6677	0.2185
250.8827	0.2196
251.0976	0.223
251.3125	0.2201
251.5274	0.2083
251.7423	0.2174
251.9572	0.2165
252.172	0.2063
252.3869	0.2072
252.6017	0.208
252.8166	0.2091
253.0314	0.2045
253.2462	0.2149
253.461	0.199
253.6758	0.1965
253.8906	0.202
254.1053	0.2026
254.3201	0.2026
254.5348	0.2023
254.7496	0.2031
254.9643	0.2033
255.179	0.2018
255.3937	0.2017
255.6083	0.1981
255.823	0.1902
256.0377	0.1935
256.2523	0.1898
256.467	0.1936
256.6816	0.1918
256.8962	0.1973
257.1108	0.2057
257.3254	0.1958
257.54	0.1908
257.7545	0.1897
257.9691	0.1999
258.1836	0.1966
258.3981	0.2014
258.6127	0.2
258.8272	0.1921
259.0417	0.1999
259.2561	0.1981
259.4706	0.1907
259.6851	0.1966
259.8995	0.1852
260.114	0.1924
260.3284	0.1969
260.5428	0.201
260.7572	0.1952
260.9716	0.1916
261.186	0.1984
261.4003	0.2047
261.6147	0.2054
261.829	0.205
262.0433	0.2003
262.2577	0.2025
262.472	0.1999
262.6863	0.1861
262.9005	0.2102
263.1148	0.194
263.3291	0.1919
263.5433	0.1894
263.7576	0.1965
263.9718	0.1955
264.186	0.1814
264.4002	0.1898
264.6144	0.1882
264.8286	0.181
265.0427	0.1836
265.2569	0.1774
265.471	0.1807
265.6851	0.1826
265.8993	0.1779
266.1134	0.1728
266.3275	0.1852
266.5415	0.1764
266.7556	0.1809
266.9697	0.1821
267.1837	0.1825
267.3978	0.1984
267.6118	0.1957
267.8258	0.191
268.0398	0.1956
268.2538	0.1987
268.4677	0.191
268.6817	0.1977
268.8957	0.1853
269.1096	0.1822
269.3235	0.1885
269.5374	0.1808
269.7514	0.1748
269.9652	0.1719
270.1791	0.1668
270.393	0.1581
270.6068	0.1604
270.8207	0.1538
271.0345	0.1574
271.2483	0.1592
271.4622	0.16
271.676	0.1444
271.8897	0.1489
272.1035	0.1484
272.3173	0.1541
272.531	0.1467
272.7448	0.1428
272.9585	0.1526
273.1722	0.1453
273.3859	0.1423
273.5996	0.1486
273.8133	0.1524
274.0269	0.1486
274.2406	0.1518
274.4542	0.1496
274.6679	0.1413
274.8815	0.147
275.0951	0.1432
275.3087	0.1499
275.5223	0.1468
275.7358	0.1536
275.9494	0.1524
276.1629	0.1483
276.3765	0.1479
276.59	0.1529
276.8035	0.1475
277.017	0.1418
277.2305	0.1514
277.444	0.1458
277.6574	0.1449
277.8709	0.1567
278.0843	0.1554
278.2978	0.1501
278.5112	0.1507
278.7246	0.1565
278.938	0.1563
279.1513	0.1552
279.3647	0.1528
279.5781	0.1532
279.7914	0.1588
280.0047	0.157
280.2181	0.1555
280.4314	0.1615
280.6447	0.1552
280.8579	0.1577
281.0712	0.157
281.2845	0.1547
281.4977	0.156
281.711	0.1604
281.9242	0.1599
282.1374	0.1589
282.3506	0.1528
282.5638	0.1616
282.7769	0.162
282.9901	0.1614
283.2033	0.1621
283.4164	0.1631
283.6295	0.1619
283.8426	0.1611
284.0557	0.1544
284.2688	0.1612
284.4819	0.1566
284.695	0.159
284.908	0.1653
285.1211	0.1639
285.3341	0.157
285.5471	0.1616
285.7601	0.1564
285.9731	0.1661
286.1861	0.1605
286.3991	0.1607
286.612	0.1613
286.825	0.155
287.0379	0.1635
287.2508	0.1562
287.4637	0.1535
287.6766	0.1496
287.8895	0.1573
288.1024	0.1571
288.3152	0.1585
288.5281	0.1521
288.7409	0.1523
288.9538	0.1619
289.1666	0.1682
289.3794	0.1539
289.5922	0.1574
289.8049	0.1581
290.0177	0.1627
290.2304	0.1674
290.4432	0.1609
290.6559	0.1551
290.8686	0.1587
291.0813	0.1669
291.294	0.1609
291.5067	0.1508
291.7194	0.1545
291.932	0.1634
292.1447	0.1579
292.3573	0.159
292.5699	0.1609
292.7825	0.1587
292.9951	0.1624
293.2077	0.1504
293.4203	0.1605
293.6328	0.1563
293.8454	0.1476
294.0579	0.1589
294.2704	0.1545
294.4829	0.1553
294.6954	0.1536
294.9079	0.1629
295.1204	0.153
295.3328	0.1571
295.5453	0.1512
295.7577	0.1403
295.9701	0.1493
296.1825	0.1513
296.3949	0.1494
296.6073	0.1614
296.8197	0.1631
297.0321	0.155
297.2444	0.1547
297.4567	0.1483
297.6691	0.1522
297.8814	0.1494
298.0937	0.1539
298.306	0.1534
298.5182	0.1504
298.7305	0.1484
298.9428	0.1452
299.155	0.1529
299.3672	0.1554
299.5794	0.1602
299.7916	0.1518
300.0038	0.1485
300.216	0.1617
300.4282	0.1536
300.6403	0.1508
300.8525	0.151
301.0646	0.145
301.2767	0.1521
301.4888	0.1397
301.7009	0.1624
301.913	0.1515
302.125	0.152
302.3371	0.1574
302.5491	0.1476
302.7612	0.1534
302.9732	0.1564
303.1852	0.1543
303.3972	0.154
303.6092	0.1505
303.8211	0.1555
304.0331	0.1467
304.245	0.1495
304.457	0.144
304.6689	0.1481
304.8808	0.1475
305.0927	0.1499
305.3046	0.1391
305.5164	0.1424
305.7283	0.1484
305.9401	0.1403
306.152	0.144
306.3638	0.1463
306.5756	0.1415
306.7874	0.138
306.9992	0.1425
307.2109	0.13
307.4227	0.1344
307.6344	0.1329
307.8462	0.132
308.0579	0.1258
308.2696	0.1279
308.4813	0.1329
308.693	0.1292
308.9046	0.1197
309.1163	0.1168
309.328	0.1156
309.5396	0.1178
309.7512	0.1228
309.9628	0.1166
310.1744	0.1197
310.386	0.1121
310.5976	0.1189
310.8091	0.1147
311.0207	0.1162
311.2322	0.1214
311.4437	0.1163
311.6552	0.1104
311.8667	0.1101
312.0782	0.1145
312.2897	0.1066
312.5012	0.1122
312.7126	0.1048
312.924	0.1041
313.1355	0.1065
313.3469	0.1081
313.5583	0.1112
313.7696	0.1062
313.981	0.1058
314.1924	0.0992
314.4037	0.1118
314.6151	0.0955
314.8264	0.0998
315.0377	0.1004
315.249	0.1078
315.4603	0.1052
315.6716	0.1036
315.8828	0.1036
316.0941	0.0993
316.3053	0.1036
316.5165	0.0984
316.7277	0.0923
316.9389	0.1035
317.1501	0.0939
317.3613	0.0977
317.5724	0.1009
317.7836	0.0979
317.9947	0.1043
318.2058	0.094
318.417	0.099
318.6281	0.1
318.8391	0.0917
319.0502	0.0889
319.2613	0.0995
319.4723	0.1034
319.6834	0.0923
319.8944	0.108
320.1054	0.1017
320.3164	0.1041
320.5274	0.1035
320.7383	0.0945
320.9493	0.1
321.1602	0.0918
321.3712	0.1067
321.5821	0.1034
321.793	0.0971
322.0039	0.0937
322.2148	0.1036
322.4257	0.094
322.6365	0.101
322.8474	0.1073
323.0582	0.1144
323.269	0.1
323.4798	0.1046
323.6906	0.1084
323.9014	0.1021
324.1122	0.1021
324.3229	0.1065
324.5337	0.1005
324.7444	0.1067
324.9551	0.11
325.1658	0.1075
325.3765	0.1006
325.5872	0.1022
325.7979	0.1117
326.0085	0.104
326.2192	0.1036
326.4298	0.111
326.6404	0.1057
326.851	0.101
327.0616	0.1097
327.2722	0.1088
327.4828	0.0965
327.6933	0.109
327.9039	0.1027
328.1144	0.1087
328.3249	0.1081
328.5354	0.1009
328.7459	0.1044
328.9564	0.1051
329.1669	0.1059
329.3773	0.1092
329.5878	0.108
329.7982	0.1108
330.0086	0.1071
330.219	0.1141
330.4294	0.1086
330.6398	0.11
330.8502	0.1171
331.0605	0.1151
331.2708	0.103
331.4812	0.1159
331.6915	0.1036
331.9018	0.1106
332.1121	0.1146
332.3224	0.1103
332.5326	0.1019
332.7429	0.1121
332.9531	0.1051
333.1633	0.1204
333.3735	0.113
333.5837	0.1135
333.7939	0.1198
334.0041	0.1139
334.2143	0.113
334.4244	0.1001
334.6346	0.1105
334.8447	0.1089
335.0548	0.1111
335.2649	0.1006
335.475	0.1081
335.685	0.1121
335.8951	0.1085
336.1051	0.1092
336.3152	0.1086
336.5252	0.1136
336.7352	0.1083
336.9452	0.1092
337.1552	0.1148
337.3652	0.1166
337.5751	0.1173
337.7851	0.1062
337.995	0.1171
338.2049	0.1127
338.4148	0.1156
338.6247	0.1145
338.8346	0.1163
339.0445	0.1117
339.2543	0.1218
339.4642	0.1172
339.674	0.1165
339.8838	0.1094
340.0936	0.121
340.3034	0.1216
340.5132	0.1227
340.7229	0.1216
340.9327	0.1209
341.1424	0.1232
341.3522	0.1146
341.5619	0.1258
341.7716	0.1299
341.9813	0.1266
342.1909	0.1221
342.4006	0.1128
342.6102	0.1181
342.8199	0.1126
343.0295	0.1237
343.2391	0.1268
343.4487	0.1233
343.6583	0.1309
343.8679	0.1277
344.0774	0.1298
344.287	0.1341
344.4965	0.1248
344.706	0.1326
344.9155	0.135
345.125	0.137
345.3345	0.1262
345.544	0.1178
345.7534	0.1309
345.9629	0.1341
346.1723	0.1342
346.3817	0.1403
346.5911	0.1369
346.8005	0.1294
347.0099	0.1368
347.2193	0.1387
347.4286	0.1352
347.638	0.1372
347.8473	0.1356
348.0566	0.139
348.2659	0.1294
348.4752	0.1413
348.6845	0.1286
348.8937	0.1417
349.103	0.1401
349.3122	0.1383
349.5214	0.1444
349.7306	0.1368
349.9398	0.133
350.149	0.1374
350.3582	0.1431
350.5674	0.1402
350.7765	0.1442
350.9856	0.1382
351.1948	0.138
351.4039	0.1431
351.613	0.1342
351.822	0.1512
352.0311	0.1383
352.2402	0.1555
352.4492	0.1362
352.6582	0.1386
352.8672	0.1469
353.0762	0.1493
353.2852	0.1459
353.4942	0.1529
353.7032	0.1465
353.9121	0.1593
354.1211	0.1501
354.33	0.1438
354.5389	0.1509
354.7478	0.1558
354.9567	0.1492
355.1655	0.1581
355.3744	0.1582
355.5833	0.1471
355.7921	0.1529
356.0009	0.1489
356.2097	0.1497
356.4185	0.1577
356.6273	0.16
356.8361	0.1417
357.0448	0.1573
357.2536	0.1597
357.4623	0.153
357.671	0.1679
357.8797	0.159
358.0884	0.1638
358.2971	0.1682
358.5057	0.162
358.7144	0.168
358.923	0.1717
359.1316	0.163
359.3402	0.1699
359.5488	0.1641
359.7574	0.1718
359.966	0.1715
360.1746	0.1725
360.3831	0.18
360.5916	0.1833
360.8002	0.1817
361.0087	0.1723
361.2172	0.1702
361.4256	0.1751
361.6341	0.1782
361.8426	0.1823
362.051	0.1851
362.2594	0.1775
362.4678	0.1797
362.6762	0.1812
362.8846	0.1868
363.093	0.1842
363.3014	0.1856
363.5097	0.1846
363.718	0.1776
363.9264	0.1796
364.1347	0.1914
364.343	0.1823
364.5513	0.1882
364.7595	0.1882
364.9678	0.1862
365.176	0.1891
365.3842	0.1852
365.5925	0.2016
365.8007	0.1861
366.0089	0.1917
366.217	0.1949
366.4252	0.1935
366.6333	0.1856
366.8415	0.1971
367.0496	0.1903
367.2577	0.2015
367.4658	0.1971
367.6739	0.195
367.882	0.199
368.09	0.1988
368.2981	0.2033
368.5061	0.2006
368.7141	0.1928
368.9221	0.1934
369.1301	0.2031
369.3381	0.2105
369.5461	0.2076
369.754	0.2051
369.962	0.2023
370.1699	0.2139
370.3778	0.1963
370.5857	0.2068
370.7936	0.2045
371.0015	0.2059
371.2093	0.2038
371.4172	0.204
371.625	0.208
371.8328	0.226
372.0406	0.2171
372.2484	0.2035
372.4562	0.2124
372.664	0.2142
372.8717	0.2044
373.0795	0.2155
373.2872	0.2196
373.4949	0.2053
373.7026	0.2087
373.9103	0.2095
374.118	0.2106
374.3256	0.22
374.5333	0.2002
374.7409	0.2172
374.9485	0.2096
375.1561	0.2136
375.3637	0.2134
375.5713	0.2123
375.7789	0.2119
375.9864	0.2103
376.194	0.2202
376.4015	0.2191
376.609	0.2209
376.8165	0.2204
377.024	0.2078
377.2315	0.2256
377.4389	0.2108
377.6464	0.213
377.8538	0.2239
378.0612	0.2243
378.2686	0.2105
378.476	0.2105
378.6834	0.2263
378.8908	0.2308
379.0981	0.2323
379.3055	0.2316
379.5128	0.2229
379.7201	0.223
379.9274	0.2261
380.1347	0.2348
380.342	0.2297
380.5492	0.2326
380.7565	0.2365
380.9637	0.2354
381.1709	0.2275
381.3781	0.2329
381.5853	0.229
381.7925	0.2365
381.9997	0.2271
382.2068	0.2289
382.4139	0.2295
382.6211	0.2281
382.8282	0.2245
383.0353	0.227
383.2424	0.231
383.4494	0.2476
383.6565	0.228
383.8635	0.2452
384.0706	0.2335
384.2776	0.2395
384.4846	0.2331
384.6916	0.2341
384.8986	0.2306
385.1055	0.2346
385.3125	0.2426
385.5194	0.2456
385.7263	0.2475
385.9333	0.2472
386.1402	0.2336
386.347	0.242
386.5539	0.2316
386.7608	0.2282
386.9676	0.2326
387.1744	0.2296
387.3813	0.2292
387.5881	0.2359
387.7948	0.2282
388.0016	0.245
388.2084	0.2464
388.4151	0.2203
388.6219	0.2318
388.8286	0.2312
389.0353	0.2231
389.242	0.2322
389.4487	0.2277
389.6553	0.2297
389.862	0.2229
390.0686	0.2193
390.2753	0.2232
390.4819	0.2235
390.6885	0.2202
390.8951	0.2228
391.1016	0.2234
391.3082	0.2187
391.5147	0.2189
391.7213	0.2196
391.9278	0.2144
392.1343	0.2215
392.3408	0.2083
392.5473	0.2161
392.7537	0.2242
392.9602	0.2054
393.1666	0.2149
393.373	0.2184
393.5794	0.2139
393.7858	0.2114
393.9922	0.1956
394.1986	0.2074
394.4049	0.2166
394.6113	0.21
394.8176	0.2031
395.0239	0.2012
395.2302	0.2007
395.4365	0.2037
395.6428	0.2088
395.8491	0.1989
396.0553	0.1909
396.2615	0.1961
396.4678	0.2093
396.674	0.1951
396.8802	0.2065
397.0863	0.2037
397.2925	0.1935
397.4987	0.202
397.7048	0.1832
397.9109	0.1954
398.117	0.1963
398.3231	0.2023
398.5292	0.1949
398.7353	0.1947
398.9413	0.1922
399.1474	0.1969
399.3534	0.1906
399.5594	0.1873
399.7654	0.1971
399.9714	0.1927
400.1774	0.1839
400.3833	0.1944
400.5893	0.1936
400.7952	0.1849
401.0011	0.1925
401.207	0.1868
401.4129	0.1782
401.6188	0.1865
401.8247	0.1941
402.0305	0.1868
402.2364	0.19
402.4422	0.1955
402.648	0.1948
402.8538	0.203
403.0596	0.178
403.2654	0.1941
403.4711	0.1852
403.6768	0.1999
403.8826	0.1941
404.0883	0.1848
404.294	0.1955
404.4997	0.1887
404.7054	0.1908
404.911	0.1898
405.1167	0.2015
405.3223	0.1919
405.5279	0.1891
405.7335	0.1954
405.9391	0.1955
406.1447	0.1884
406.3502	0.1961
406.5558	0.1891
406.7613	0.1826
406.9668	0.1856
407.1724	0.1936
407.3778	0.1959
407.5833	0.1977
407.7888	0.1943
407.9942	0.1894
408.1997	0.1949
408.4051	0.1876
408.6105	0.2015
408.8159	0.1997
409.0213	0.1874
409.2267	0.1904
409.432	0.2028
409.6374	0.1876
409.8427	0.1963
410.048	0.1941
410.2533	0.189
410.4586	0.1921
410.6639	0.1783
410.8691	0.1847
411.0744	0.1831
411.2796	0.1921
411.4848	0.1945
411.69	0.1961
411.8952	0.1889
412.1004	0.1786
412.3056	0.1947
412.5107	0.1918
412.7158	0.1856
412.921	0.1905
413.1261	0.182
413.3312	0.1918
413.5362	0.1891
413.7413	0.1777
413.9464	0.1875
414.1514	0.1817
414.3564	0.1865
414.5614	0.1866
414.7664	0.1934
414.9714	0.1807
415.1764	0.1793
415.3813	0.178
415.5863	0.1871
415.7912	0.1883
415.9961	0.1889
416.201	0.1922
416.4059	0.1899
416.6108	0.1927
416.8156	0.1765
417.0205	0.1883
417.2253	0.1872
417.4301	0.1852
417.6349	0.1878
417.8397	0.1861
418.0445	0.186
418.2492	0.1707
418.454	0.1785
418.6587	0.1778
418.8634	0.1843
419.0681	0.1698
419.2728	0.1808
419.4775	0.1772
419.6822	0.1765
419.8868	0.1669
420.0915	0.1753
420.2961	0.1701
420.5007	0.1721
420.7053	0.1675
420.9099	0.1676
421.1144	0.1761
421.319	0.1631
421.5235	0.18
421.728	0.1733
421.9325	0.1648
422.137	0.1626
422.3415	0.1757
422.546	0.1612
422.7504	0.1731
422.9549	0.1664
423.1593	0.158
423.3637	0.1641
423.5681	0.1667
423.7725	0.1707
423.9769	0.1621
424.1812	0.1624
424.3856	0.151
424.5899	0.1621
424.7942	0.1543
424.9985	0.1538
425.2028	0.1465
425.4071	0.1546
425.6113	0.1536
425.8156	0.1565
426.0198	0.16
426.224	0.1395
426.4282	0.1448
426.6324	0.1428
426.8366	0.1473
427.0407	0.1515
427.2449	0.1601
427.449	0.1473
427.6531	0.145
427.8572	0.1431
428.0613	0.1395
428.2654	0.1367
428.4694	0.155
428.6735	0.146
428.8775	0.1217
429.0815	0.1413
429.2855	0.14
429.4895	0.134
429.6935	0.128
429.8975	0.1393
430.1014	0.1281
430.3053	0.1282
430.5093	0.1395
430.7132	0.1302
430.9171	0.128
431.1209	0.1332
431.3248	0.121
431.5286	0.1243
431.7325	0.1181
431.9363	0.1191
432.1401	0.1241
432.3439	0.114
432.5477	0.1185
432.7514	0.1175
432.9552	0.1086
433.1589	0.1098
433.3627	0.106
433.5664	0.1102
433.7701	0.1102
433.9737	0.0974
434.1774	0.1125
434.3811	0.1022
434.5847	0.1016
434.7883	0.0946
434.9919	0.0941
435.1955	0.0844
435.3991	0.0992
435.6027	0.0974
435.8062	0.0922
436.0098	0.0963
436.2133	0.0879
436.4168	0.0922
436.6203	0.0861
436.8238	0.0869
437.0272	0.085
437.2307	0.0866
437.4341	0.0865
437.6375	0.0887
437.841	0.078
438.0443	0.075
438.2477	0.0742
438.4511	0.0851
438.6545	0.072
438.8578	0.0761
439.0611	0.0763
439.2644	0.0857
439.4677	0.0656
439.671	0.0692
439.8743	0.0744
440.0775	0.0697
440.2808	0.0508
440.484	0.0725
440.6872	0.0574
440.8904	0.0532
441.0936	0.0619
441.2967	0.0631
441.4999	0.0612
441.703	0.0506
441.9062	0.0627
442.1093	0.0617
442.3124	0.0572
442.5155	0.0475
442.7185	0.0476
442.9216	0.0485
443.1246	0.0608
443.3276	0.058
443.5307	0.0386
443.7337	0.062
443.9366	0.0493
444.1396	0.0479
444.3426	0.048
444.5455	0.0353
444.7484	0.0355
444.9513	0.0378
445.1542	0.0438
445.3571	0.0469
445.56	0.0395
445.7628	0.0348
445.9657	0.0438
446.1685	0.035
446.3713	0.0392
446.5741	0.0433
446.7769	0.0347
446.9797	0.0337
447.1824	0.024
447.3852	0.0409
447.5879	0.0323
447.7906	0.035
447.9933	0.0175
448.196	0.032
448.3986	0.0217
448.6013	0.0224
448.8039	0.0194
449.0066	0.0266
449.2092	0.026
449.4118	0.0248
449.6143	0.0174
449.8169	0.0144
450.0195	0.0137
450.222	0.0139
450.4245	0.0143
450.627	0.0303
450.8295	0.0194
451.032	0.0189
451.2345	0.0129
451.4369	0.0258
451.6394	0.0174
451.8418	0.0117
452.0442	0.0119
452.2466	0.0184
452.449	0.016
452.6513	0.023
452.8537	0.0155
453.056	0.0114
453.2583	0.0134
453.4607	0.0168
453.663	0.0243
453.8652	0.0063
454.0675	0.0098
454.2697	0.0247
454.472	0.0164
454.6742	0.01
454.8764	0.0092
455.0786	0.0176
455.2808	0.0131
455.4829	0.0078
455.6851	0.0075
455.8872	0.0004
456.0893	0.0114
456.2915	0.0014
456.4935	0.0108
456.6956	0.0144
456.8977	0.0079
457.0997	0.0053
457.3018	0.0073
457.5038	0.009
457.7058	-0.001
457.9078	-0.0034
458.1098	0.004
458.3117	0.0135
458.5137	0.0029
458.7156	0.0063
458.9175	0.0087
459.1194	0.0087
459.3213	0.0084
459.5232	0.0005
459.725	-0.0042
459.9269	0.0079
460.1287	0.0043
460.3305	-0.0011
460.5323	0.0093
460.7341	0.0076
460.9359	0.0034
461.1376	0.0038
461.3394	-0.0013
461.5411	0.0064
461.7428	-0.0019
461.9445	0.0048
462.1462	-0.0013
462.3479	0.007
462.5495	0.01
462.7512	-0.0016
462.9528	-0.0011
463.1544	0.0018
463.356	0.0082
463.5576	-0.0063
463.7592	-0.0049
463.9607	-0.0014
464.1623	0.0069
464.3638	0.0015
464.5653	0.0009
464.7668	0.0033
464.9683	0.0078
465.1697	-0.001
465.3712	-0.0012
465.5726	-0.003
465.7741	-0.0111
465.9755	-0.0022
466.1769	-0.0145
466.3782	-0.0095
466.5796	-0.0029
466.7809	-0.0056
466.9823	-0.0044
467.1836	-0.004
467.3849	-0.0048
467.5862	-0.0025
467.7875	-0.0126
467.9887	-0.0022
468.19	-0.0071
468.3912	-0.0006
468.5924	0.0042
468.7936	-0.0115
468.9948	0.0107
469.196	-0.0003
469.3972	0.0068
469.5983	0.0026
469.7994	-0.0068
470.0006	-0.0082
470.2017	-0.0001
470.4027	-0.0007
470.6038	-0.0055
470.8049	-0.0055
471.0059	-0.0026
471.2069	0.0056
471.408	-0.0036
471.6089	-0.0041
471.8099	-0.0026
472.0109	-0.0132
472.2119	-0.0163
472.4128	0.0031
472.6137	-0.0027
472.8146	-0.0094
473.0155	-0.0111
473.2164	-0.0203
473.4173	-0.0103
473.6181	0.0015
473.819	-0.0076
474.0198	-0.0024
474.2206	0.0001
474.4214	-0.0051
474.6222	-0.0055
474.8229	-0.009
475.0237	-0.001
475.2244	-0.0103
475.4251	-0.0021
475.6258	0.0011
475.8265	-0.0011
476.0272	-0.0029
476.2278	-0.0003
476.4285	-0.0007
476.6291	-0.0048
476.8297	-0.0032
477.0303	-0.0059
477.2309	0.0047
477.4315	-0.0027
477.632	-0.0118
477.8326	0.0032
478.0331	-0.0047
478.2336	-0.0019
478.4341	-0.0095
478.6346	0.0044
478.8351	-0.0099
479.0355	-0.0071
479.236	-0.0123
479.4364	-0.0023
479.6368	0.0005
479.8372	-0.0067
480.0376	-0.0099
480.2379	-0.0059
480.4383	-0.0029
480.6386	-0.0102
480.8389	-0.0102
481.0392	-0.0086
481.2395	-0.0087
481.4398	0.0006
481.6401	-0.0112
481.8403	-0.0031
482.0405	-0.0056
482.2408	0.0012
482.441	0.0003
482.6411	0.0061
482.8413	-0.0032
483.0415	-0.0062
483.2416	-0.0067
483.4417	-0.0055
483.6419	-0.001
483.8419	-0.0088
484.042	-0.0025
484.2421	-0.0048
484.4422	-0.01
484.6422	-0.0115
484.8422	-0.0123
485.0422	-0.0057
485.2422	-0.0101
485.4422	-0.0044
485.6422	-0.0035
485.8421	0.0001
486.042	-0.0048
486.242	-0.0056
486.4419	-0.007
486.6417	-0.0033
486.8416	-0.0064
487.0415	-0.0064
487.2413	-0.0027
487.4411	0.0003
487.641	-0.0082
487.8408	-0.0108
488.0405	-0.0049
488.2403	-0.0074
488.4401	-0.0106
488.6398	-0.0078
488.8395	-0.005
489.0392	-0.0041
489.2389	-0.0068
489.4386	-0.0111
489.6383	-0.0079
489.8379	-0.0044
490.0376	-0.002
490.2372	-0.0079
490.4368	-0.0105
490.6364	-0.0067
490.836	-0.0083
491.0355	-0.0013
491.2351	-0.0104
491.4346	-0.0106
491.6341	-0.0018
491.8336	-0.0066
492.0331	-0.0111
492.2326	-0.0048
492.432	-0.007
492.6315	-0.0036
492.8309	-0.0079
493.0303	-0.0051
493.2297	-0.0097
493.4291	-0.0055
493.6284	-0.0007
493.8278	0.0009
494.0271	-0.0054
494.2264	-0.0035
494.4257	-0.0048
494.625	0.0001
494.8243	-0.0086
495.0236	-0.0187
495.2228	-0.0036
495.422	-0.0066
495.6213	-0.0118
495.8205	-0.0017
496.0196	-0.008
496.2188	-0.005
496.418	-0.0071
496.6171	-0.0017
496.8162	-0.0087
497.0153	0.0025
497.2144	-0.0029
497.4135	-0.0072
497.6126	-0.0075
497.8116	0.0049
498.0107	-0.0074
498.2097	-0.0051
498.4087	-0.0047
498.6077	-0.0104
498.8067	-0.0128
499.0056	-0.005
499.2046	-0.0056
499.4035	-0.0062
499.6024	-0.0096
499.8013	-0.0013
500.0002	0.0005
500.199	0.0021
500.3979	-0.0017
500.5967	-0.0074
500.7956	-0.011
500.9944	-0.0112
501.1932	-0.0073
501.3919	-0.0084
501.5907	-0.0086
501.7895	-0.0015
501.9882	-0.0125
502.1869	0.0014
502.3856	-0.0031
502.5843	-0.0078
502.783	-0.0106
502.9816	-0.0099
503.1803	-0.0035
503.3789	-0.0019
503.5775	-0.0023
503.7761	-0.0021
503.9747	-0.0072
504.1732	-0.004
504.3718	-0.001
504.5703	-0.0039
504.7689	-0.0026
504.9674	-0.0019
505.1658	-0.008
505.3643	-0.0029
505.5628	0.0054
505.7612	-0.0149
505.9597	-0.0094
506.1581	-0.0058
506.3565	-0.0078
506.5549	-0.0075
506.7532	-0.0048
506.9516	-0.0019
507.1499	0.0008
507.3482	-0.0064
507.5465	-0.0073
507.7448	-0.0009
507.9431	-0.0066
508.1414	-0.0067
508.3396	-0.0058
508.5379	-0.0107
508.7361	0.0011
508.9343	-0.0061
509.1325	-0.0047
509.3306	0.0011
509.5288	-0.01
509.7269	-0.0055
509.9251	-0.013
510.1232	-0.0024
510.3213	-0.0104
510.5193	-0.0006
510.7174	-0.0075
510.9154	-0.0039
511.1135	-0.0041
511.3115	-0.0071
511.5095	-0.0085
511.7075	-0.0036
511.9055	-0.0076
512.1034	-0.0069
512.3014	-0.004
512.4993	-0.0047
512.6972	-0.0063
512.8951	-0.0049
513.093	-0.0067
513.2908	-0.0016
513.4887	-0.0058
513.6865	-0.0078
513.8844	-0.0065
514.0822	-0.0038
514.2799	-0.0037
514.4777	-0.0018
514.6755	-0.0011
514.8732	-0.0131
515.0709	-0.0054
515.2687	-0.0058
515.4664	-0.0087
515.664	0.0003
515.8617	-0.0011
516.0594	-0.0076
516.257	-0.0046
516.4546	-0.0118
516.6522	-0.0047
516.8498	-0.0103
517.0474	-0.0074
517.2449	-0.0052
517.4425	-0.0034
517.64	-0.0073
517.8375	-0.0022
518.035	-0.0073
518.2325	-0.015
518.43	0.0022
518.6274	-0.0058
518.8249	0.0001
519.0223	-0.0049
519.2197	-0.0013
519.4171	-0.0056
519.6145	-0.0007
519.8118	-0.0073
520.0092	-0.0036
520.2065	-0.0063
520.4038	-0.0039
520.6011	-0.0079
520.7984	-0.0103
520.9956	-0.0114
521.1929	-0.0057
521.3901	-0.0058
521.5874	-0.0053
521.7846	0.0005
521.9818	0.0004
522.1789	-0.003
522.3761	-0.0102
522.5732	-0.0015
522.7704	-0.008
522.9675	-0.0027
523.1646	-0.0055
523.3617	-0.0063
523.5587	-0.0093
523.7558	-0.0006
523.9528	-0.0022
524.1498	-0.002
524.3468	-0.0033
524.5438	-0.0075
524.7408	-0.0171
524.9378	-0.0094
525.1347	0.001
525.3316	-0.0004
525.5285	-0.0023
525.7254	-0.0109
525.9223	0.0027
526.1192	0.0016
526.316	0.0015
526.5129	-0.0075
526.7097	-0.011
526.9065	-0.0008
527.1033	-0.0026
527.3	-0.0081
527.4968	-0.0121
527.6935	-0.0002
527.8903	-0.0043
528.087	-0.0094
528.2837	-0.0005
528.4804	-0.0102
528.677	-0.0033
528.8737	-0.0149
529.0703	-0.0038
529.2669	0.0019
529.4635	0.0006
529.6601	-0.0028
529.8567	0.0022
530.0532	-0.0039
530.2498	-0.0019
530.4463	-0.0084
530.6428	-0.0028
530.8393	0.0019
531.0358	-0.0054
531.2322	-0.0113
531.4287	-0.0125
531.6251	-0.0065
531.8215	0.0014
532.0179	-0.0002
532.2143	-0.0032
532.4107	-0.0027
532.607	-0.0082
532.8034	-0.0106
532.9997	-0.0039
533.196	-0.0102
533.3923	-0.0029
533.5886	-0.0036
533.7848	0.002
533.9811	-0.0055
534.1773	-0.0101
534.3735	-0.0062
534.5697	-0.0081
534.7659	-0.0083
534.9621	-0.0042
535.1582	-0.0033
535.3544	-0.0113
535.5505	-0.0023
535.7466	-0.001
535.9427	0.0051
536.1387	-0.0049
536.3348	-0.0031
536.5308	-0.0099
536.7269	-0.0033
536.9229	-0.0056
537.1189	-0.0062
537.3148	0.001
537.5108	0.0013
537.7068	-0.005
537.9027	-0.0006
538.0986	0.0004
538.2945	-0.0026
538.4904	-0.0119
538.6863	-0.0086
538.8821	-0.0045
539.078	-0.0066
539.2738	-0.0056
539.4696	-0.0069
539.6654	-0.0088
539.8611	-0.0109
540.0569	-0.0024
540.2526	-0.0048
540.4484	0.0054
540.6441	-0.0056
540.8398	-0.0125
541.0355	-0.0012
541.2311	-0.002
541.4268	0.0024
541.6224	-0.0025
541.818	-0.0035
542.0136	-0.0046
542.2092	-0.004
542.4048	-0.0099
542.6003	-0.0085
542.7959	-0.0061
542.9914	-0.009
543.1869	-0.0085
543.3824	-0.003
543.5779	-0.0134
543.7734	-0.0123
543.9688	-0.0104
544.1642	-0.0037
544.3596	-0.0044
544.555	-0.0049
544.7504	-0.0026
544.9458	-0.0016
545.1411	0.0043
545.3365	-0.0066
545.5318	0.0038
545.7271	0.0017
545.9224	-0.0012
546.1177	-0.0078
546.3129	-0.0024
546.5081	-0.0004
546.7034	-0.0011
546.8986	-0.0057
547.0938	0.0007
547.289	-0.0012
547.4841	-0.006
547.6793	-0.0029
547.8744	-0
548.0695	-0.0054
548.2646	-0.0084
548.4597	0.0014
548.6548	-0.0035
548.8498	-0.0064
549.0448	-0.0022
549.2399	-0.0025
549.4349	-0.0012
549.6298	-0.0051
549.8248	-0.0036
550.0198	-0.001
550.2147	-0.0007
550.4096	-0.0058
550.6045	-0.0056
550.7994	-0.0013
550.9943	-0.0021
551.1892	-0.0075
551.384	-0.0118
551.5788	-0.0089
551.7737	-0.003
551.9685	-0.0087
552.1632	-0.0034
552.358	-0.0106
552.5528	-0.0092
552.7475	-0.0096
552.9422	-0.0098
553.1369	-0.0044
553.3316	0.002
553.5263	-0.0076
553.7209	-0.009
553.9156	-0.0012
554.1102	-0.0098
554.3048	-0.0092
554.4994	-0.0062
554.694	-0.0001
554.8885	-0.0043
555.0831	-0.0017
555.2776	-0.0061
555.4721	-0.0051
555.6666	0.0001
555.8611	0.0008
556.0555	-0.0079
556.25	-0.0054
556.4444	-0.0085
556.6388	-0.01
556.8332	-0.0072
557.0276	-0.0047
557.222	-0.0029
557.4163	0.0004
557.6107	-0.0022
557.805	-0.0078
557.9993	-0.0035
558.1936	-0.0111
558.3879	0.0066
558.5821	-0.0088
558.7764	-0.0102
558.9706	-0.0072
559.1648	-0.0037
559.359	-0.0078
559.5532	-0.0016
559.7473	-0.009
559.9415	-0.0043
560.1356	-0.0059
560.3297	-0.0104
560.5238	-0.012
560.7179	-0.0023
560.9119	0.0023
561.106	-0.003
561.3	-0.0023
561.494	-0.0065
561.688	-0.0036
561.882	-0.0023
562.076	-0.0035
562.2699	-0.0033
562.4639	-0.0069
562.6578	-0.0102
562.8517	-0.0025
563.0456	0.0019
563.2395	-0.0027
563.4333	-0.004
563.6272	-0.0071
563.821	-0.004
564.0148	0.0012
564.2086	-0.0055
564.4024	-0.0044
564.5961	-0.0032
564.7899	0.0031
564.9836	0.0005
565.1773	-0.0025
565.371	-0.0028
565.5647	-0.0023
565.7584	-0.0002
565.952	0.0019
566.1456	-0.0016
566.3393	-0.0091
566.5329	-0.0008
566.7264	-0.0069
566.92	-0.0028
567.1136	-0.0037
567.3071	0.0067
567.5006	0
567.6941	0.0014
567.8876	-0.0081
568.0811	-0.002
568.2745	-0.0073
568.468	-0.0084
568.6614	-0.0141
568.8548	-0.0129
569.0482	-0.0045
569.2416	-0.0042
569.4349	0.0005
569.6283	-0.0061
569.8216	-0.0059
570.0149	-0.0071
570.2082	-0.0024
570.4015	-0.0028
570.5947	0.0001
570.788	-0.0049
570.9812	-0.0025
571.1744	-0.0083
571.3676	-0.006
571.5608	-0.0003
571.754	-0.0051
571.9471	-0.0056
572.1402	-0.0037
572.3333	-0.0044
572.5264	0.0025
572.7195	-0.0003
572.9126	0.0005
573.1057	0.0002
573.2987	0.0029
573.4917	-0.0039
573.6847	-0.0002
573.8777	-0.0051
574.0707	-0.0025
574.2636	-0.0037
574.4566	-0.0057
574.6495	-0.0036
574.8424	-0.0038
575.0353	-0.0055
575.2281	-0.0013
575.421	-0.008
575.6138	-0.0016
575.8067	-0.0074
575.9995	-0.0035
576.1923	-0.0051
576.385	-0.0068
576.5778	-0.0007
576.7706	0.0042
576.9633	-0.0011
577.156	0.0024
577.3487	0.0004
577.5414	0.0035
577.734	0.0061
577.9267	0.0025
578.1193	-0.002
578.3119	-0.0015
578.5045	-0.005
578.6971	-0.0001
578.8897	-0.0074
579.0822	-0.0028
579.2747	0.0068
579.4673	-0.0032
579.6598	0.0006
579.8522	-0.0015
580.0447	-0.0065
580.2372	0.0011
580.4296	0.0025
580.622	0.0021
580.8144	-0.004
581.0068	-0.0011
581.1992	0.0024
581.3915	-0.0005
581.5839	-0.0039
581.7762	-0.0059
581.9685	-0
582.1608	-0.0056
582.353	0.0012
582.5453	-0.0045
582.7375	-0.0024
582.9298	-0.0023
583.122	0.0061
583.3142	-0.0011
583.5063	-0.0025
583.6985	-0.0057
583.8906	-0.0071
584.0827	-0.0052
584.2749	-0.0094
584.4669	-0.0033
584.659	-0.0091
584.8511	-0.003
585.0431	-0.0058
585.2352	-0.0076
585.4272	-0.0061
585.6192	-0.0064
585.8111	-0.0057
586.0031	0.0048
586.195	-0.0082
586.387	-0.0004
586.5789	-0.0049
586.7708	-0.0078
586.9627	-0.0062
587.1545	-0.0056
587.3464	-0.006
587.5382	-0.0055
587.73	-0.0103
587.9218	-0.006
588.1136	-0.0037
588.3053	-0.0016
588.4971	-0.0089
588.6888	-0.0028
588.8805	-0.0022
589.0722	-0.0021
589.2639	-0.0003
589.4556	-0.0017
589.6472	-0.0017
589.8389	-0.0014
590.0305	0.0012
590.2221	-0.0038
590.4137	-0.0076
590.6052	-0.0047
590.7968	-0.0041
590.9883	0.0004
591.1798	-0.0076
591.3713	-0.0014
591.5628	-0.0068
591.7543	-0.0033
591.9458	-0.0014
592.1372	-0.0006
592.3286	-0.0017
592.52	-0.0042
592.7114	0.0043
592.9028	-0.0067
593.0941	0.0026
593.2855	-0.0043
593.4768	-0.004
593.6681	0
593.8594	0.0043
594.0506	-0.0014
594.2419	0.0022
594.4331	-0.0022
594.6244	-0.0018
594.8156	-0.0065
595.0067	-0.0037
595.1979	-0.0032
595.3891	-0.0036
595.5802	-0.0035
595.7713	-0.004
595.9624	0.0011
596.1535	0.002
596.3446	0.0029
596.5357	0.0026
596.7267	-0.0037
596.9177	0.0007
597.1087	0.0014
597.2997	0.0025
597.4907	-0.0049
597.6817	-0.0034
597.8726	-0.0058
598.0635	-0.0048
598.2544	-0.0042
598.4453	-0.0066
598.6362	-0.0081
598.827	-0.0054
599.0179	-0.0013
599.2087	-0.0099
599.3995	-0.0107
599.5903	-0.002
599.7811	-0.0027
599.9718	0.0014
600.1626	0.0035
600.3533	-0.0028
600.544	-0.0068
600.7347	0.0008
600.9254	-0.0047
601.116	-0.0036
601.3067	-0.0031
601.4973	-0.0048
601.6879	0.0006
601.8785	-0.005
602.0691	-0.002
602.2596	-0.0007
602.4502	-0.0084
602.6407	-0.0031
602.8312	-0.0033
603.0217	-0.0078
603.2122	-0.0048
603.4027	-0.0021
603.5931	-0.0048
603.7835	-0.0042
603.9739	0.0011
604.1643	-0.0012
604.3547	-0.0024
604.5451	-0.0019
604.7354	0.0038
604.9257	-0.0037
605.116	-0.0026
605.3063	-0.0037
605.4966	-0.0048
605.6869	-0.007
605.8771	0.0038
606.0673	-0.0034
606.2575	-0.0052
606.4477	-0.0017
606.6379	-0.0075
606.8281	-0.007
607.0182	-0.0087
607.2083	-0.0077
607.3985	-0.0084
607.5885	-0.0014
607.7786	-0.0007
607.9687	-0.0026
608.1587	-0.0045
608.3488	-0.0012
608.5388	0.0041
608.7288	-0.0015
608.9187	-0.0011
609.1087	-0.0077
609.2986	-0.0049
609.4886	-0.0046
609.6785	-0.0043
609.8684	0.0004
610.0582	-0.0021
610.2481	-0.0025
610.4379	-0.0032
610.6278	-0.0001
610.8176	0.003
611.0074	-0.0066
611.1971	0.0023
611.3869	-0.0054
611.5766	-0.0007
611.7664	0.0025
611.9561	-0.0006
612.1458	0.0056
612.3354	-0.0065
612.5251	-0.01
612.7147	-0.0038
612.9044	-0.0083
613.094	0.0013
613.2836	-0.0056
613.4731	-0.0084
613.6627	-0.0046
613.8522	-0.002
614.0417	-0.0049
614.2313	-0.0077
614.4207	-0.0007
614.6102	-0.0001
614.7997	-0.0036
614.9891	-0.0017
615.1785	-0.0041
615.3679	0.001
615.5573	-0.0021
615.7467	-0.0032
615.9361	-0.0036
616.1254	-0.0083
616.3147	-0.003
616.504	-0.0008
616.6933	0.0007
616.8826	-0.0058
617.0718	-0.0086
617.2611	0.0015
617.4503	0.0015
617.6395	-0.0039
617.8287	-0.0007
618.0179	-0.0009
618.207	-0.0059
618.3961	-0.0038
618.5853	-0.0076
618.7744	0.0026
618.9634	-0.0011
619.1525	-0.009
619.3416	-0.008
619.5306	-0.0027
619.7196	-0.0002
619.9086	0.0008
620.0976	0.0033
620.2866	0.0064
620.4755	-0.0086
620.6645	-0.0043
620.8534	0.0039
621.0423	-0.0056
621.2312	-0.0093
621.42	-0.004
621.6089	-0.0013
621.7977	-0.0049
621.9865	-0.0023
622.1753	0.0011
622.3641	0.0031
622.5529	-0.0002
622.7416	-0.0073
622.9303	0.0044
623.1191	-0.0027
623.3078	-0.0011
623.4964	0
623.6851	0.0022
623.8737	-0.0036
624.0624	0.0012
624.251	0.0004
624.4396	-0.0005
624.6282	-0.0056
624.8167	0.0012
625.0053	-0.0005
625.1938	0.003
625.3823	0.0006
625.5708	-0.0024
625.7593	-0.0026
625.9477	-0.0053
626.1362	-0.0014
626.3246	-0.0034
626.513	-0.0045
626.7014	-0.0029
626.8898	0.0002
627.0781	-0.0018
627.2665	-0.0051
627.4548	-0.0094
627.6431	-0.0015
627.8314	-0.0029
628.0197	-0.0051
628.2079	0.0024
628.3962	0
628.5844	0.004
628.7726	0.0015
628.9608	0.0021
629.1489	0.0046
629.3371	0.0002
629.5252	0.0009
629.7134	-0.0045
629.9015	-0.0003
630.0895	-0.0075
630.2776	0.003
630.4657	-0
630.6537	-0.004
630.8417	-0.001
631.0297	-0.0005
631.2177	-0.0004
631.4057	0.0006
631.5936	0.0044
631.7815	-0.0041
631.9695	-0.0001
632.1574	-0.0046
632.3452	-0.0066
632.5331	-0.0019
632.7209	-0.008
632.9088	-0.006
633.0966	-0.0025
633.2844	-0.0044
633.4722	-0.0012
633.6599	0.0005
633.8477	-0.0077
634.0354	-0.0095
634.2231	-0.0052
634.4108	0.0003
634.5985	-0.0015
634.7861	-0.0032
634.9738	-0.0035
635.1614	-0.005
635.349	-0.0009
635.5366	-0.0036
635.7242	-0
635.9117	0.0007
636.0993	-0.0054
636.2868	-0.0007
636.4743	0.0022
636.6618	-0.0086
636.8492	-0.0036
637.0367	0.0003
637.2241	-0.0047
637.4115	-0.0066
637.5989	0.002
637.7863	0.002
637.9737	-0.0038
638.161	0.0003
638.3484	0.001
638.5357	-0.0013
638.723	-0.001
638.9103	0.0009
639.0975	-0.0026
639.2848	-0.0001
639.472	0.0052
639.6592	0.0031
639.8464	-0.0023
640.0336	-0.0041
640.2208	-0.0008
640.4079	-0.0037
640.595	0.0029
640.7821	-0.0002
640.9692	0.0044
641.1563	0.0051
641.3434	0.0041
641.5304	-0.0008
641.7174	0.0014
641.9044	0.0073
642.0914	0.001
642.2784	0.0046
642.4653	0.0074
642.6523	0.003
642.8392	0.0033
643.0261	0.0052
643.213	0.0021
643.3999	-0.0031
643.5867	-0.0025
643.7735	-0.0024
643.9604	0.0019
644.1472	-0.0039
644.3339	-0.0007
644.5207	-0.0033
644.7075	-0.0048
644.8942	-0.0025
645.0809	-0.0024
645.2676	-0.0058
645.4543	0.0038
645.6409	-0.0043
645.8276	-0.0006
646.0142	-0.005
646.2008	-0.0057
646.3874	-0.0052
646.574	-0.006
646.7605	-0.0017
646.9471	-0.0017
647.1336	-0.0033
647.3201	-0.0091
647.5066	0.0003
647.6931	-0.0002
647.8795	-0.0079
648.0659	-0.0068
648.2524	-0.0074
648.4388	-0.0018
648.6252	-0.0012
648.8115	-0.0054
648.9979	-0.006
649.1842	-0.0076
649.3705	-0.003
649.5568	-0.0015
649.7431	-0.0039
649.9294	-0.0033
650.1156	-0.0074
650.3018	-0.0119
650.488	-0.0072
650.6742	-0.0045
650.8604	0.0004
651.0466	0.0019
651.2327	-0.0041
651.4188	-0.0018
651.6049	0.0023
651.791	0.0004
651.9771	-0.0029
652.1632	0.0011
652.3492	-0.0019
652.5352	-0.0001
652.7212	-0.001
652.9072	0.0037
653.0932	0.001
653.2791	0.0004
653.465	0.0016
653.651	-0.0013
653.8369	-0.0011
654.0227	0.0013
654.2086	0.0023
654.3944	-0.0063
654.5803	-0.0068
654.7661	-0.0032
654.9519	-0.0057
655.1377	-0.0014
655.3234	0
655.5092	0
655.6949	0
655.8806	0
656.0663	0
656.2519	0
656.4376	-0.0046
656.6232	-0.0072
656.8088	-0.0028
656.9945	-0.0018
657.18	-0.0019
657.3656	-0.0018
657.5511	-0.0045
657.7367	-0.0008
657.9222	0.0045
658.1077	-0.0008
658.2932	-0.0024
658.4786	-0.0027
658.6641	-0.003
658.8495	-0.0003
659.0349	-0.0025
659.2203	-0.0101
659.4057	-0.0067
659.591	-0.0018
659.7764	-0.0053
659.9617	-0.0073
660.147	0
660.3323	-0.0008
660.5176	-0.0096
660.7028	-0.0049
660.888	-0.0067
661.0733	0.0023
661.2585	-0.0009
661.4436	0.0004
661.6288	-0.0044
661.8139	-0.0007
661.9991	-0.0018
662.1842	-0.0003
662.3693	0.0001
662.5544	0.0024
662.7394	-0.0005
662.9245	-0.0014
663.1095	0.0014
663.2945	0.0008
663.4795	-0.0029
663.6644	-0.0058
663.8494	-0.0056
664.0343	-0.0034
664.2193	-0.0052
664.4042	-0.0098
664.589	-0.0088
664.7739	-0.0041
664.9587	0.0013
665.1436	0.0006
665.3284	-0.0015
665.5132	-0.0037
665.698	0.0046
665.8827	0.0008
666.0675	-0.0058
666.2522	-0.006
666.4369	-0.0092
666.6216	-0.0095
666.8063	-0.0062
666.9909	-0.0111
667.1756	-0.0099
667.3602	-0.0087
667.5448	-0.012
667.7294	-0.0046
667.9139	-0.0042
668.0985	-0.0125
668.283	-0.0087
668.4675	-0.0111
668.652	-0.0107
668.8365	-0.0088
669.0209	-0.0077
669.2054	-0.0038
669.3898	-0.0072
669.5742	-0.008
669.7586	-0.0032
669.943	-0.0092
670.1273	-0.0107
670.3117	-0.0029
670.496	-0.009
670.6803	-0.0034
670.8646	-0.0001
671.0488	-0.0002
671.2331	-0.0032
671.4173	0.0009
671.6015	0.0002
671.7857	-0.0048
671.9699	-0.0021
672.1541	-0.0072
672.3382	-0.0093
672.5223	-0.0041
672.7064	-0.009
672.8905	-0.0142
673.0746	-0.0109
673.2587	-0.0164
673.4427	-0.0123
673.6267	-0.0139
673.8107	-0.0154
673.9947	-0.0137
674.1787	-0.0111
674.3626	-0.0066
674.5465	-0.0036
674.7304	-0.0042
674.9143	-0.0046
675.0982	-0.0021
675.2821	-0.0027
675.4659	-0.0052
675.6497	-0.0039
675.8335	-0.0004
676.0173	-0.0042
676.2011	-0.0055
676.3849	-0.0051
676.5686	0.0017
676.7523	-0.0009
676.936	-0.0013
677.1197	-0.0082
677.3034	-0.0045
677.487	-0.007
677.6706	-0.0015
677.8542	-0.0022
678.0378	-0.0001
678.2214	-0.0101
678.405	-0.0039
678.5885	-0.0064
678.772	-0.0032
678.9555	-0.004
679.139	-0.005
679.3225	-0.0046
679.5059	-0.0074
679.6894	0.0005
679.8728	-0.0048
680.0562	0.0005
680.2395	-0.0028
680.4229	0.0012
680.6062	0.002
680.7896	-0.0033
680.9729	-0.0007
681.1562	0.0023
681.3394	0.0007
681.5227	-0.0042
681.7059	-0.0062
681.8891	0.0006
682.0723	-0.0006
682.2555	-0.0061
682.4387	0.0035
682.6218	-0.0073
682.805	0.0006
682.9881	-0.0011
683.1712	-0.0018
683.3542	0.001
683.5373	-0.0039
683.7203	-0.0064
683.9034	-0.0063
684.0864	-0.0069
684.2694	-0.0052
684.4523	0.001
684.6353	-0
684.8182	-0.0021
685.0011	-0.0044
685.184	-0.0033
685.3669	-0.0019
685.5498	-0.0014
685.7326	-0.0014
685.9154	-0.0074
686.0982	-0.003
686.281	-0.0071
686.4638	-0.0039
686.6465	-0.0016
686.8293	0.0005
687.012	-0.005
687.1947	-0.0016
687.3774	0.0008
687.56	-0.0065
687.7427	-0.0015
687.9253	-0.0033
688.1079	-0.0013
688.2905	0.0028
688.4731	0.0017
688.6556	-0.0053
688.8382	0.0003
689.0207	-0.002
689.2032	-0.0015
689.3857	-0.0009
689.5681	-0.0009
689.7506	-0.0017
689.933	0.0003
690.1154	-0.0055
690.2978	-0.0011
690.4802	0
690.6626	0.0051
690.8449	0.0008
691.0272	0.0018
691.2095	-0.0001
691.3918	-0.0022
691.5741	-0.0045
691.7563	-0.0018
691.9386	0.0006
692.1208	-0.004
692.303	-0.0009
692.4852	0.0007
692.6673	-0.0067
692.8495	-0.0074
693.0316	-0.0007
693.2137	-0.0037
693.3958	-0.0056
693.5778	0.0002
693.7599	-0.0091
693.9419	-0.0113
694.1239	-0.0025
694.3059	-0.0067
694.4879	-0.01
694.6699	-0.0081
694.8518	-0.0052
695.0337	-0.0037
695.2157	-0.0054
695.3975	-0.0071
695.5794	-0.0058
695.7613	-0.006
695.9431	-0.0079
696.1249	-0.0087
696.3067	-0.0065
696.4885	-0.0046
696.6703	-0.0043
696.852	-0.0082
697.0337	-0.0013
697.2154	-0.0015
697.3971	-0.0056
697.5788	-0.003
697.7605	-0.0002
697.9421	-0.0069
698.1237	-0.0019
698.3053	-0.0036
698.4869	0.001
698.6685	-0.0056
698.85	-0.0063
699.0315	-0.0013
699.213	-0.0026
699.3945	-0.0001
699.576	0.0093
699.7575	-0.0041
699.9389	0.0047
700.1203	-0.0059
700.3017	-0.0062
700.4831	-0.0034
700.6645	-0.0129
700.8458	-0.0044
701.0271	-0.0033
701.2084	-0.0103
701.3897	-0.0054
701.571	0.0019
701.7523	0.0033
701.9335	0.0066
702.1147	0.003
702.2959	-0.002
702.4771	-0.0041
702.6583	0.0006
702.8394	0.0024
703.0205	-0.0052
703.2016	-0.0004
703.3827	0.0044
703.5638	-0.0045
703.7449	-0.0093
703.9259	-0.0051
704.1069	-0.0028
704.2879	-0.0047
704.4689	-0.0039
704.6499	-0.0035
704.8308	0.0004
705.0117	-0.0018
705.1927	-0.0057
705.3735	0.0051
705.5544	0.0022
705.7353	-0.0019
705.9161	0.0021
706.0969	0.004
706.2777	-0.0068
706.4585	-0.0007
706.6393	-0.0046
706.82	-0.0019
707.0007	-0.0054
707.1815	-0.0008
707.3621	-0.0039
707.5428	-0.0048
707.7235	-0.003
707.9041	-0.0015
708.0847	-0.0026
708.2653	-0.0045
708.4459	-0.0031
708.6265	-0.0059
708.807	-0.0032
708.9875	-0.0014
709.168	-0.0048
709.3485	-0.0049
709.529	-0.0121
709.7095	-0.0074
709.8899	-0.0103
710.0703	-0.0044
710.2507	-0.0074
710.4311	-0.0015
710.6115	0.0016
710.7918	0.0011
710.9721	0.0014
711.1524	0.0038
711.3327	0.0028
711.513	-0.0038
711.6932	-0.0111
711.8735	0.0012
712.0537	-0.005
712.2339	-0.0012
712.4141	-0.0058
712.5942	0.0023
712.7744	-0.0008
712.9545	-0.0001
713.1346	-0.0005
713.3147	0.0016
713.4947	0.0029
713.6748	-0.0004
713.8548	-0.0101
714.0348	-0.0059
714.2148	-0.0045
714.3948	-0.0067
714.5748	-0.0085
714.7547	-0.0062
714.9346	-0.0026
715.1145	-0.0077
715.2944	-0.0035
715.4743	-0.0103
715.6541	-0.005
715.834	-0.0089
716.0138	-0.0058
716.1936	0.001
716.3733	-0.0067
716.5531	-0.0058
716.7328	-0.0033
716.9126	0.0001
717.0923	-0.0023
717.2719	-0.0076
717.4516	-0.0025
717.6312	0.0073
717.8109	-0.0047
717.9905	-0.0064
718.1701	-0.0008
718.3496	-0.0022
718.5292	0
718.7087	-0.0083
718.8882	-0.0022
719.0677	0.0013
719.2472	-0.0041
719.4267	-0.0135
719.6061	-0.0077
719.7856	0
719.965	-0.0104
720.1443	0.0003
720.3237	-0.0047
720.5031	-0.0064
720.6824	-0.0013
720.8617	-0.0074
721.041	0.001
721.2203	-0.0027
721.3995	-0.0036
721.5788	-0.0104
721.758	-0.0034
721.9372	-0.0038
722.1164	-0.0091
722.2956	-0.0118
722.4747	-0.0038
722.6538	-0.0089
722.8329	-0.0039
723.012	-0.0053
723.1911	-0.0067
723.3702	0.0025
723.5492	0.0003
723.7282	0.0011
723.9072	-0.001
724.0862	-0.0004
724.2652	-0.0052
724.4441	-0.0032
724.623	0.001
724.8019	-0.0016
724.9808	0.0007
725.1597	-0.0001
725.3385	0.0078
725.5174	0.0014
725.6962	-0.0067
725.875	0.0017
726.0538	0.0043
726.2325	-0.0027
726.4112	-0.0025
726.59	0.0012
726.7687	-0.0031
726.9474	-0.0047
727.126	-0.0024
727.3047	-0.0007
727.4833	-0.0013
727.6619	-0.0058
727.8405	-0.0035
728.0191	-0.0011
728.1976	-0.0107
728.3762	-0.0078
728.5547	-0.0117
728.7332	-0.0098
728.9116	-0.0086
729.0901	-0.0101
729.2686	-0.0085
729.447	-0.0048
729.6254	-0.0038
729.8038	-0.0064
729.9821	-0.0001
730.1605	-0.0039
730.3388	0.0007
730.5171	-0.0034
730.6954	-0.0057
730.8737	0.0003
731.0519	0.0003
731.2302	-0.0001
731.4084	0.0092
731.5866	0.0057
731.7648	0.0036
731.9429	0.0048
732.1211	0.004
732.2992	-0.0011
732.4773	-0.005
732.6554	-0.0084
732.8335	-0.0086
733.0115	-0.0038
733.1896	-0.0109
733.3676	-0.002
733.5456	-0.0011
733.7235	-0.0047
733.9015	-0.0033
734.0794	-0.002
734.2574	-0.0003
734.4353	0
734.6131	0.0008
734.791	-0.0041
734.9689	-0.0017
735.1467	0.0082
735.3245	-0.0006
735.5023	-0.005
735.68	-0.0009
735.8578	-0.0023
736.0355	0.0059
736.2132	-0.0019
736.3909	-0.0005
736.5686	-0.0004
736.7463	-0.004
736.9239	-0.0006
737.1015	-0.0027
737.2791	-0.0062
737.4567	-0.0042
737.6343	-0.0007
737.8118	-0.0096
737.9894	0.0003
738.1669	-0.0042
738.3444	-0.0027
738.5218	0.0025
738.6993	0.0019
738.8767	0.0015
739.0541	-0.005
739.2315	-0.0061
739.4089	-0.0045
739.5863	-0.0098
739.7636	-0.0067
739.9409	-0.0062
740.1182	0.0062
740.2955	-0.0075
740.4728	-0.0017
740.65	-0.001
740.8272	0.0033
741.0044	-0.0017
741.1816	0.0053
741.3588	0.0023
741.5359	0.0025
741.7131	0.0024
741.8902	-0.0031
742.0673	0.0012
742.2444	-0.0018
742.4214	-0.0083
742.5985	-0.0122
742.7755	-0.011
742.9525	-0.0036
743.1295	-0.0023
743.3064	-0.0091
743.4834	-0.0023
743.6603	-0.0056
743.8372	0.0006
744.0141	-0.0014
744.191	-0.0023
744.3678	-0.0002
744.5446	0.0006
744.7215	-0.0104
744.8982	0.002
745.075	-0.0073
745.2518	-0.0004
745.4285	-0.0032
745.6052	0.0005
745.7819	-0.0009
745.9586	-0.0012
746.1353	-0.0049
746.3119	0.009
746.4885	-0.0016
746.6651	-0.005
746.8417	-0.0101
747.0183	-0.005
747.1948	-0.0098
747.3714	-0.0061
747.5479	-0.0046
747.7244	0.0016
747.9008	-0.0003
748.0773	0.009
748.2537	0.003
748.4301	0.0015
748.6065	-0.0004
748.7829	0.0092
748.9593	0.0029
749.1356	-0.0059
749.3119	-0.0009
749.4882	0.0027
749.6645	0.0011
749.8408	-0.0057
750.017	-0.0051
750.1933	-0.0042
750.3695	-0.0059
750.5457	-0.008
750.7218	-0.0067
750.898	-0.0061
751.0741	-0.0117
751.2502	-0.0003
751.4263	-0.0023
751.6024	-0.0084
751.7784	0.0067
751.9545	0.0003
752.1305	-0.0022
752.3065	-0.0025
752.4825	-0.0044
752.6584	0.0004
752.8344	-0.0057
753.0103	-0
753.1862	-0.0014
753.3621	-0.0018
753.5379	-0.0054
753.7138	0.0035
753.8896	-0.0135
754.0654	-0.0059
754.2412	-0.0131
754.417	-0.01
754.5927	-0.0041
754.7685	-0.0157
754.9442	-0.0088
755.1199	-0.0076
755.2956	-0.0053
755.4712	-0.0015
755.6469	-0.011
755.8225	-0.0105
755.9981	-0.0017
756.1736	-0.0061
756.3492	-0.0075
756.5248	0.0006
756.7003	-0.01
756.8758	-0.0104
757.0513	-0.0103
757.2267	-0.0123
757.4022	-0.01
757.5776	-0.0139
757.753	-0.0119
757.9284	-0.0118
758.1038	-0.0061
758.2791	-0.0143
758.4545	-0.012
758.6298	-0.005
758.8051	-0.0088
758.9803	-0.0083
759.1556	-0.0105
759.3308	-0.0081
759.506	-0.0118
759.6812	-0.0111
759.8564	-0.0057
760.0316	-0.0079
760.2067	-0.0099
760.3819	-0.0106
760.557	-0.01
760.732	-0.0089
760.9071	-0.0061
761.0821	-0.0184
761.2572	-0.0143
761.4322	-0.0096
761.6072	-0.0111
761.7821	-0.0135
761.9571	-0.0112
762.132	-0.0095
762.3069	0.0007
762.4818	-0.0079
762.6567	-0.011
762.8316	0.0024
763.0064	-0.002
763.1812	0.0018
763.356	-0.0038
763.5308	0.0028
763.7055	-0.0055
763.8803	0.0015
764.055	-0.0093
764.2297	0.0114
764.4044	0.0045
764.579	-0.0032
764.7537	-0.0074
764.9283	-0.0123
765.1029	0.0012
765.2775	0.0032
765.4521	0.004
765.6266	0.0057
765.8011	0.005
765.9756	0.0015
766.1501	0.0074
766.3246	-0.0048
766.4991	-0.003
766.6735	-0.0083
766.8479	-0.0101
767.0223	0.0037
767.1967	-0.0003
767.371	0.0003
767.5454	-0.0062
767.7197	-0.0053
767.894	0.0005
768.0683	-0.0068
768.2425	-0.0072
768.4168	-0.0061
768.591	0.0049
768.7652	0.0003
768.9394	0.0048
769.1135	0.0055
769.2877	0.0083
769.4618	0.013
769.6359	-0.0007
769.81	-0.002
769.984	-0.0119
770.1581	0.0041
770.3321	0.0024
770.5061	0.0048
770.6801	0.0006
770.8541	0.002
771.028	0.0063
771.202	0.008
771.3759	0.0001
771.5498	0.0063
771.7236	0.0086
771.8975	0.001
772.0713	0.0052
772.2451	0.0027
772.4189	0.0029
772.5927	0.0025
772.7665	-0.0011
772.9402	-0.0022
773.1139	-0.001
773.2876	0.001
773.4613	-0.0035
773.635	0.0011
773.8086	-0.0073
773.9822	0.0041
774.1558	-0.0109
774.3294	0.0074
774.503	0.0033
774.6765	-0.0044
774.8501	0.0107
775.0236	-0.0127
775.1971	-0.0108
775.3705	-0.0004
775.544	-0.0026
775.7174	0.0044
775.8908	-0.0038
776.0642	0.0021
776.2376	0.0009
776.4109	-0.0057
776.5843	0.0088
776.7576	0.0042
776.9309	0.0005
777.1041	0.0064
777.2774	0.0089
777.4506	-0.0023
777.6238	0.0001
777.797	0.0002
777.9702	-0.0059
778.1434	0.0042
778.3165	0.0035
778.4896	-0.012
778.6627	-0.0032
778.8358	0.0001
779.0089	0.0034
779.1819	-0.0031
779.3549	0.003
779.5279	-0.0028
779.7009	-0.0049
779.8739	0.0001
780.0468	-0.0083
780.2197	-0.0069
780.3926	-0.004
780.5655	-0.0054
780.7384	-0.0039
780.9112	-0.0096
781.0841	-0.0015
781.2569	0.0013
781.4297	-0.0101
781.6024	0.0002
781.7752	-0.0021
781.9479	-0.0004
782.1206	0.0007
782.2933	-0.003
782.466	-0.0078
782.6386	0.001
782.8113	-0.0099
782.9839	-0.0055
783.1565	-0.0059
783.329	-0.0007
783.5016	-0.0021
783.6741	-0.0033
783.8466	-0.0093
784.0191	-0.0074
784.1916	-0.0001
784.3641	0.0022
784.5365	0.0026
784.7089	0.0039
784.8813	0.0075
785.0537	0.0095
785.2261	0.0061
785.3984	-0.0088
785.5707	0.0081
785.743	0.0041
785.9153	0.0002
786.0876	-0.0013
786.2598	0.0037
786.432	0.0049
786.6042	0.0087
786.7764	0.0039
786.9486	0.0038
787.1207	-0.0045
787.2928	-0.0002
787.4649	-0.0048
787.637	-0.0043
787.8091	0
787.9811	0.0083
788.1532	0.0035
788.3252	-0.0077
788.4972	-0.0064
788.6691	-0.0014
788.8411	0.0053
789.013	-0.0065
789.1849	0.0041
789.3568	-0.0082
789.5287	-0.0063
789.7005	0.0019
789.8723	-0.0026
790.0442	-0.0071
790.2159	0.0033
790.3877	-0.008
790.5595	0.0024
790.7312	0.0076
790.9029	0.0032
791.0746	-0.0083
791.2463	0.0048
791.4179	-0.0115
791.5896	0.0051
791.7612	0.0052
791.9328	0.0016
792.1044	-0.0075
792.2759	-0.0008
792.4474	-0.0033
792.619	-0.0094
792.7905	0.0026
792.9619	-0.0038
793.1334	-0.0063
793.3048	-0.0058
793.4762	0.0013
793.6476	-0.0135
793.819	-0.0084
793.9904	-0.012
794.1617	-0.0102
794.333	-0.0096
794.5043	-0.0042
794.6756	0.0083
794.8469	0.0006
795.0181	-0.0045
795.1893	-0.0095
795.3605	-0.0084
795.5317	-0.0015
795.7029	-0.0081
795.874	0.0059
796.0452	-0.0016
796.2163	-0.0077
796.3873	-0.007
796.5584	-0.0096
796.7294	-0.0093
796.9005	-0.0089
797.0715	-0.0181
797.2425	-0.0141
797.4134	-0.0161
797.5844	-0.005
797.7553	-0.0065
797.9262	-0.0128
798.0971	-0.014
798.2679	-0.0095
798.4388	-0.0102
798.6096	-0.0104
798.7804	-0.0104
798.9512	-0.0191
799.122	-0.0136
799.2927	-0.0103
799.4635	-0.0027
799.6342	-0.0073
799.8049	-0.0104
799.9755	-0.0054
800.1462	-0.0202
800.3168	-0.0069
800.4874	-0.0066
800.658	-0.0219
800.8286	-0.013
800.9991	-0.0211
801.1696	-0.0215
801.3402	-0.0192
801.5106	-0.0225
801.6811	-0.0168
801.8516	-0.0131
802.022	-0.0317
802.1924	-0.0282
802.3628	-0.0163
802.5332	-0.0207
802.7035	-0.0176
802.8739	-0.0111
803.0442	-0.0109
803.2145	-0.0115
803.3847	-0.0261
803.555	-0.0163
803.7252	-0.0106
803.8954	-0.0116
804.0656	-0.0112
804.2358	-0.0123
804.4059	-0.0203
804.5761	0.0008
804.7462	-0.0083
804.9163	-0.0079
805.0864	-0.0114
805.2564	-0.0122
805.4264	-0.0135
805.5965	-0.0219
805.7665	-0.0009
805.9364	-0.0081
806.1064	-0.0141
806.2763	-0.0078
806.4462	-0.014
806.6161	-0.0115
806.786	-0.0063
806.9559	-0.0114
807.1257	-0.0176
807.2955	-0.0119
807.4653	-0.0135
807.6351	-0.0004
807.8048	-0.004
807.9746	-0.0106
808.1443	0.0038
808.314	0.0088
808.4837	-0.0041
808.6533	0.0054
808.8229	0.0028
808.9926	0.0007
809.1622	-0.002
809.3317	0.0016
809.5013	0.0004
809.6708	0.0111
809.8403	-0.0025
810.0098	0.0117
810.1793	-0.0116
810.3488	0.0033
810.5182	0.0001
810.6876	-0.0025
810.857	-0.0105
811.0264	-0.0014
811.1958	0.0039
811.3651	-0.0106
811.5344	-0.0062
811.7037	-0.0061
811.873	-0.0049
812.0422	-0.0104
812.2115	-0.0031
812.3807	-0.0088
812.5499	0.0045
812.7191	-0.015
812.8882	0
813.0574	-0.0003
813.2265	0.0046
813.3956	0.0047
813.5646	-0.0013
813.7337	-0.0014
813.9027	0.0038
814.0718	-0.0027
814.2407	0.0098
814.4097	-0.0024
814.5787	0.0016
814.7476	-0.0027
814.9165	0.0048
815.0854	-0.0044
815.2543	-0.0006
815.4232	0
815.592	-0.0069
815.7608	-0.0078
815.9296	-0.007
816.0984	0.0024
816.2671	0.0032
816.4359	0.0085
816.6046	0.0038
816.7733	-0.0056
816.942	0.006
817.1106	0.0048
817.2793	-0.0151
817.4479	-0.0131
817.6165	-0.0061
817.785	-0.0105
817.9536	-0.007
818.1221	-0.0149
818.2906	-0.0087
818.4591	-0.0113
818.6276	-0.0008
818.7961	-0.0047
818.9645	-0.007
819.1329	-0.0026
819.3013	-0.0147
819.4697	-0.0035
819.638	-0.0173
819.8064	-0.0056
819.9747	0.0019
820.143	0.0049
820.3113	-0.0144
820.4795	0.0045
820.6477	0.0007
820.816	-0.0004
820.9842	-0.0006
821.1523	-0.0126
821.3205	-0.0092
821.4886	-0.0028
821.6567	0.0088
821.8248	-0.0065
821.9929	-0.0004
822.1609	0.004
822.329	-0.0072
822.497	-0.0074
822.665	-0.0183
822.833	-0.0286
823.0009	-0.0117
823.1688	-0.0105
823.3367	-0.0029
823.5046	-0.0064
823.6725	-0.0163
823.8404	0.0022
824.0082	-0.0276
824.176	-0.0001
824.3438	0.002
824.5116	0.0017
824.6793	-0.0018
824.847	-0.0024
825.0147	-0.0096
825.1824	-0.0194
825.3501	-0.0049
825.5177	-0.0134
825.6854	-0.0032
825.853	0.0051
826.0206	-0.011
826.1881	-0.0039
826.3557	0.0007
826.5232	-0.0086
826.6907	-0.0092
826.8582	-0.0078
827.0257	-0.0116
827.1931	0.0029
827.3605	-0.0025
827.528	-0.0078
827.6953	-0.0025
827.8627	-0.0052
828.03	-0.0126
828.1974	-0.0011
828.3647	0.0026
828.532	-0.0072
828.6992	-0.0056
828.8665	-0.0149
829.0337	-0.008
829.2009	-0.0096
829.3681	-0.0117
829.5352	-0.016
829.7024	-0.0079
829.8695	-0.0195
830.0366	-0.0228
830.2037	-0.011
830.3707	-0.0091
830.5378	-0.0171
830.7048	-0.0269
830.8718	-0.0007
831.0388	-0.0191
831.2057	-0.0184
831.3727	-0.0118
831.5396	-0.0065
831.7065	0.0032
831.8734	0.0079
832.0402	-0.0072
832.2071	0.0071
832.3739	-0.0085
832.5407	0.0058
832.7075	-0.0167
832.8742	0.0063
833.041	0.0304
833.2077	-0.0251
833.3744	0.0001
833.541	-0.006
833.7077	-0.0113
833.8743	0.0119
834.0409	0.0058
834.2075	0.0114
834.3741	-0.017
834.5407	0.0035
834.7072	-0.001
834.8737	0.0165
835.0402	-0.0303
835.2067	-0.0275
835.3731	-0.0159
835.5395	-0.0022
835.706	-0.019
835.8723	-0.0135
836.0387	-0.0349
836.2051	-0.0186
836.3714	-0.0061
836.5377	0.0024
836.704	0.007
836.8703	-0.0231
837.0365	0.007
837.2027	-0.0054
837.3689	-0.0113
837.5351	-0.0032
837.7013	-0.0252
837.8674	-0.0069
838.0335	-0.0023
838.1997	-0.0077
838.3657	0.0001
838.5318	0.0032
838.6978	-0.0169
838.8639	0.024
839.0299	-0.0121
839.1958	0.022
839.3618	0.0139
839.5277	-0.0118
839.6937	0.0046
839.8596	-0.013
840.0254	-0.0087
840.1913	0.0069
840.3571	0.0104
840.523	-0.007
840.6888	-0.0037
840.8545	-0.0094
841.0203	-0.0151
841.186	0.0068
841.3517	-0.0505
841.5174	-0.0119
841.6831	-0.0057
841.8488	0.0057
842.0144	0.0154
842.18	0.0168
842.3456	-0.0012
842.5112	-0.0039
842.6767	0.0027
842.8422	0.022
843.0077	-0.0153
843.1732	-0.0069
843.3387	0.0001
843.5042	0.0001
843.6696	-0.014
843.835	-0.0128
844.0004	0.0083
844.1657	0.0209
844.3311	-0.002
844.4964	-0.0095
844.6617	0.0082
844.827	0.0031
844.9923	0.0105
845.1575	0.002
845.3227	0.0009
845.4879	0.0091
845.6531	0.0001
845.8183	-0.0061
845.9834	-0.015
846.1485	0.0271
846.3136	-0.0558
846.4787	-0.0327
846.6438	0.0271
846.8088	0.014
846.9738	0.001
847.1388	0.0195
847.3038	-0.0149
847.4687	-0.0083
847.6337	0.0113
847.7986	0.0243
847.9635	0.0248
848.1284	-0.0465
848.2932	0.0136
848.458	0.0413
848.6228	0.0243
848.7876	-0.0808
848.9524	0.0275
849.1172	-0.0317
849.2819	0.016
849.4466	0.0189
849.6113	0.0007
849.7759	-0.0125
849.9406	0.0067
850.1052	0.0296
850.2698	0.0007
850.4344	-0.0088
850.599	-0.0488
850.7635	0.0133
850.928	-0.0085
851.0925	0.0255
851.257	0.0117
851.4215	0.0081
851.5859	0.0339
851.7503	0.0165
851.9147	0.0049
852.0791	-0.0127
852.2434	-0.0161
852.4078	0.0368
852.5721	-0.0347
852.7364	-0.0419
852.9007	0.0022
853.0649	-0.0066
853.2291	-0.0013
853.3934	0.005
853.5575	-0.0005
853.7217	-0.047
853.8859	0.018
854.05	-0.0327
854.2141	-0.0579
854.3782	0.0207
854.5423	0.0062
854.7063	0.0417
854.8703	-0.0417
855.0343	-0.0148
855.1983	0.0293
855.3623	-0.0175
855.5262	0.096
855.6901	-0.0195
855.854	0.0507
856.0179	0.0108
856.1818	-0.0106
856.3456	-0.0244
856.5094	-0.0384
856.6732	-0.0342
856.837	0.0402
857.0008	0.0259
857.1645	-0.0282
857.3282	-0.005
857.4919	-0.0431
857.6556	0.0636
857.8192	0.0621
857.9828	0.0378
858.1465	0.0884
858.31	-0.0075
858.4736	-0.158
858.6372	0.0038
858.8007	0.0173
858.9642	-0.032
859.1277	0.0767
859.2911	0.041
859.4546	0.0525
859.618	-0.0236
859.7814	0.0119
859.9448	-0.0684
860.1081	-0.0463
860.2715	0.0506
860.4348	-0.0448
860.5981	0.0022
860.7614	-0.0476
860.9246	-0.0506
861.0879	-0.0537
861.2511	-0.0299
861.4143	-0.0171
861.5774	-0.0616
861.7406	0.1023
861.9037	-0.1523
862.0668	-0.0219
862.2299	0.0617
862.393	0.0091
862.556	0.055
862.7191	-0.0242
862.8821	-0.0321
863.0451	-0.0321
863.208	-0.0251
863.371	0.1844
863.5339	-0.0543
863.6968	-0.0252
863.8597	-0.0282
864.0225	-0.0534
864.1854	0.0973
864.3482	-0.2004
864.511	-0.0056
864.6737	-0.0477
864.8365	0.0211
864.9992	-0.0754
865.1619	-0.0076
865.3246	-0.1345
865.4873	0.0191
865.65	0.0145
865.8126	0.053
865.9752	-0.1596
866.1378	0.0085
866.3004	-0.044
866.4629	-0.1172
866.6254	0.009
866.7879	-0.2364
866.9504	-0.129
867.1129	-0.0385
867.2753	-0.0361
867.4377	-0.0327
867.6001	-0.133
867.7625	0.1984
867.9249	-0.0617
868.0872	-0.1779
868.2495	-0.099
868.4118	-0.0379
868.5741	-0.0479
868.7363	0.1343
868.8986	-0.0025
869.0608	-0.1163
869.223	-0.0706
869.3851	0.088
869.5473	-0.0379
869.7094	0.8616
869.8715	-0.03
870.0336	-0.0985
870.1957	-0.1515
870.3577	0.2145
870.5197	-0.0517
870.6817	-0.0731
870.8437	-0.0049
871.0057	0.0032
871.1676	0.3698
871.3295	-0.4935
871.4914	0.0567
871.6533	0.4675
871.8151	0.1926
871.977	0.124
872.1388	-0.2885
872.3006	-0.328
872.4623	-0.0831
872.6241	0.2034
872.7858	0.0018
872.9475	0.0492
873.1092	-0.0487
873.2709	0.079
873.4325	-0.2628
873.5941	0.2496
873.7557	0.0212
873.9173	-0.0107
874.0789	-0.1871
874.2404	-0.2261
874.4019	-0.4961
874.5634	0.0897
874.7249	-0.0585
874.8863	-0.0979
875.0478	0.0711
875.2092	-0.3041
875.3706	-0.0878
875.5319	-0.2952
875.6933	0.0407
875.8546	-0.2237
876.0159	0.0849
876.1772	-0.1771
876.3385	-0
876.4997	-0.3894
876.6609	-0.082
876.8221	-0.0624
876.9833	-0.5005
877.1445	-0.1423
877.3056	-0.1601
877.4667	-0.5254
877.6278	0.2194
877.7889	0.1233
877.9499	-0.5279
878.111	0.5614
878.272	0.2018
878.433	0.3207
878.5939	0.2596
878.7549	-0.2794
878.9158	0.1726
879.0767	-0.028
879.2376	0.4304
879.3984	0.1151
879.5593	-0
879.7201	-0
879.8809	-0.0487
880.0417	-0.1179
880.2024	0.1069
880.3632	-0.3982
880.5239	-0
880.6846	-0.3487
880.8452	1.259
881.0059	-0.4932
881.1665	-0
881.3271	-0.3047
881.4877	-0.1229
881.6483	-0
881.8088	0.5259
881.9693	0.0017
882.1298	0.0017
882.2903	0.0017
