Data from MonoPyChalIsomerACN10uM450nmA_Absorbance_13-11-14-492.txt Node
Date: Tue Jul 09 13:11:14 BST 2024
User: LASERRRRR
Spectrometer: FLMT03099
Trigger mode: 0
Integration Time (sec): 2.000000E-1
Scans to average: 1
Electric dark correction enabled: true
Nonlinearity correction enabled: false
Boxcar width: 0
XAxis mode: Wavelengths
Number of Pixels in Spectrum: 3648
>>>>>Begin Spectral Data<<<<<
179.3399	-0.0206
179.5586	-0.0206
179.7771	-0.0206
179.9957	-0.5909
180.2143	-0
180.4329	0.6656
180.6514	-0
180.8699	-0
181.0885	-0
181.307	0.4879
181.5255	-0
181.744	0.3573
181.9625	-0.0405
182.181	-0
182.3994	0.1755
182.6179	-0.1563
182.8363	-0
183.0547	0.084
183.2732	0.1666
183.4916	0.0397
183.71	0.143
183.9284	0.0562
184.1467	0.0056
184.3651	0
184.5835	0.1656
184.8018	0.1388
185.0201	0.1967
185.2385	-0.075
185.4568	-0.0028
185.6751	0.1596
185.8934	0.0813
186.1117	0.1194
186.3299	-0.0082
186.5482	-0.0984
186.7664	0.0433
186.9847	0.0543
187.2029	0.2586
187.4211	0.1026
187.6393	0.0023
187.8575	0.0426
188.0757	0.0373
188.2939	0.0969
188.512	0.0333
188.7302	0.0022
188.9483	0.0869
189.1665	0.1117
189.3846	0.1729
189.6027	0.1145
189.8208	0.136
190.0389	0.2275
190.257	0.1596
190.475	0.3042
190.6931	0.1254
190.9111	0.3434
191.1292	0.2621
191.3472	0.2459
191.5652	0.4523
191.7832	0.3526
192.0012	0.3389
192.2192	0.2955
192.4371	0.3883
192.6551	0.3855
192.873	0.3532
193.091	0.4636
193.3089	0.5196
193.5268	0.542
193.7447	0.4915
193.9626	0.6097
194.1805	0.5032
194.3984	0.5648
194.6162	0.5329
194.8341	0.5515
195.0519	0.5969
195.2697	0.534
195.4875	0.6171
195.7054	0.5777
195.9231	0.6305
196.1409	0.6695
196.3587	0.611
196.5765	0.7535
196.7942	0.843
197.012	0.7153
197.2297	0.7335
197.4474	0.7281
197.6651	0.5842
197.8828	0.7574
198.1005	0.8949
198.3182	0.8771
198.5358	0.6973
198.7535	0.8004
198.9711	0.8346
199.1888	0.7543
199.4064	0.7663
199.624	0.7491
199.8416	0.8391
200.0592	0.8062
200.2767	0.7814
200.4943	0.7861
200.7119	0.7383
200.9294	0.872
201.1469	0.9871
201.3645	0.7448
201.582	0.8968
201.7995	0.7744
202.017	0.9618
202.2344	0.8762
202.4519	0.9072
202.6694	0.9689
202.8868	0.9716
203.1042	0.8936
203.3217	0.9158
203.5391	0.9923
203.7565	0.9646
203.9739	0.9022
204.1913	0.8065
204.4086	0.882
204.626	0.9009
204.8433	0.9089
205.0607	1.0638
205.278	0.88
205.4953	1.211
205.7126	0.8882
205.9299	0.998
206.1472	0.9766
206.3644	0.9512
206.5817	1.1381
206.7989	1.0305
207.0162	1.0792
207.2334	0.9782
207.4506	0.9541
207.6678	1.1466
207.885	1.1907
208.1022	1.0274
208.3194	1.1022
208.5365	0.9941
208.7537	0.9961
208.9708	1.0124
209.1879	1.0731
209.405	1.0549
209.6222	1.106
209.8392	1.1144
210.0563	0.9956
210.2734	1.0345
210.4905	1.0969
210.7075	1.0635
210.9245	1.0015
211.1416	1.1186
211.3586	1.0785
211.5756	1.1128
211.7926	1.0243
212.0096	0.9777
212.2265	1.0674
212.4435	1.1275
212.6604	1.0222
212.8774	1.0148
213.0943	0.978
213.3112	0.94
213.5281	0.9515
213.745	1.0556
213.9619	0.9789
214.1788	0.9497
214.3956	0.9386
214.6125	0.9518
214.8293	0.9084
215.0461	0.9031
215.2629	0.8608
215.4798	0.8227
215.6965	0.8561
215.9133	0.8915
216.1301	0.8252
216.3469	0.8623
216.5636	0.7935
216.7803	0.7749
216.9971	0.7331
217.2138	0.715
217.4305	0.7018
217.6472	0.6713
217.8639	0.6732
218.0805	0.6179
218.2972	0.5833
218.5138	0.5383
218.7305	0.4993
218.9471	0.4891
219.1637	0.4685
219.3803	0.4227
219.5969	0.3842
219.8135	0.3761
220.0301	0.3487
220.2466	0.3688
220.4632	0.3278
220.6797	0.3272
220.8962	0.316
221.1127	0.2942
221.3292	0.2976
221.5457	0.2856
221.7622	0.2918
221.9787	0.2973
222.1951	0.2906
222.4116	0.2818
222.628	0.2716
222.8444	0.2835
223.0608	0.2804
223.2772	0.2711
223.4936	0.2703
223.71	0.2743
223.9264	0.283
224.1427	0.2617
224.3591	0.2777
224.5754	0.2752
224.7917	0.2751
225.008	0.2903
225.2243	0.2767
225.4406	0.2754
225.6569	0.2794
225.8732	0.298
226.0894	0.2822
226.3057	0.2937
226.5219	0.2945
226.7381	0.2931
226.9543	0.2861
227.1705	0.2857
227.3867	0.306
227.6029	0.296
227.8191	0.3027
228.0352	0.3053
228.2513	0.3185
228.4675	0.3122
228.6836	0.3151
228.8997	0.3169
229.1158	0.3231
229.3319	0.3384
229.548	0.3204
229.764	0.3315
229.9801	0.3225
230.1961	0.3364
230.4121	0.3315
230.6282	0.3511
230.8442	0.3506
231.0602	0.343
231.2761	0.3363
231.4921	0.3546
231.7081	0.3624
231.924	0.3716
232.14	0.3587
232.3559	0.374
232.5718	0.3588
232.7877	0.365
233.0036	0.375
233.2195	0.3677
233.4353	0.3803
233.6512	0.3762
233.867	0.3762
234.0829	0.3865
234.2987	0.3834
234.5145	0.3877
234.7303	0.3963
234.9461	0.3865
235.1619	0.3899
235.3776	0.3768
235.5934	0.4036
235.8091	0.3949
236.0249	0.3916
236.2406	0.4023
236.4563	0.3998
236.672	0.4027
236.8877	0.4143
237.1034	0.4071
237.319	0.4105
237.5347	0.4075
237.7503	0.4155
237.966	0.4116
238.1816	0.4041
238.3972	0.4198
238.6128	0.4197
238.8284	0.407
239.0439	0.4015
239.2595	0.4286
239.475	0.427
239.6906	0.4199
239.9061	0.4128
240.1216	0.4216
240.3371	0.4138
240.5526	0.417
240.7681	0.4157
240.9836	0.4227
241.199	0.4117
241.4145	0.4015
241.6299	0.4004
241.8453	0.3923
242.0607	0.3897
242.2761	0.3919
242.4915	0.3718
242.7069	0.3731
242.9223	0.3652
243.1376	0.3588
243.353	0.3524
243.5683	0.3533
243.7836	0.3431
243.9989	0.3392
244.2142	0.3294
244.4295	0.3255
244.6448	0.3118
244.86	0.3218
245.0753	0.3057
245.2905	0.2929
245.5057	0.2996
245.721	0.2893
245.9362	0.284
246.1514	0.276
246.3665	0.283
246.5817	0.2609
246.7969	0.2685
247.012	0.2635
247.2271	0.2601
247.4423	0.252
247.6574	0.2569
247.8725	0.2466
248.0876	0.2476
248.3026	0.242
248.5177	0.2435
248.7328	0.2361
248.9478	0.2363
249.1628	0.2299
249.3779	0.2273
249.5929	0.2249
249.8079	0.2273
250.0228	0.2299
250.2378	0.2216
250.4528	0.2107
250.6677	0.2182
250.8827	0.2086
251.0976	0.2098
251.3125	0.2117
251.5274	0.2035
251.7423	0.2115
251.9572	0.2093
252.172	0.2082
252.3869	0.2025
252.6017	0.2017
252.8166	0.2058
253.0314	0.2005
253.2462	0.212
253.461	0.1987
253.6758	0.2014
253.8906	0.2073
254.1053	0.2026
254.3201	0.2008
254.5348	0.2001
254.7496	0.2029
254.9643	0.1922
255.179	0.2061
255.3937	0.2086
255.6083	0.1999
255.823	0.1933
256.0377	0.1862
256.2523	0.1884
256.467	0.2032
256.6816	0.1863
256.8962	0.2015
257.1108	0.1953
257.3254	0.1986
257.54	0.1991
257.7545	0.2
257.9691	0.1948
258.1836	0.1863
258.3981	0.2008
258.6127	0.2027
258.8272	0.197
259.0417	0.1995
259.2561	0.2023
259.4706	0.1908
259.6851	0.1963
259.8995	0.1913
260.114	0.1967
260.3284	0.2
260.5428	0.1959
260.7572	0.2016
260.9716	0.1958
261.186	0.2005
261.4003	0.206
261.6147	0.2015
261.829	0.194
262.0433	0.1988
262.2577	0.1998
262.472	0.199
262.6863	0.1932
262.9005	0.1961
263.1148	0.1999
263.3291	0.1887
263.5433	0.1807
263.7576	0.1793
263.9718	0.189
264.186	0.1923
264.4002	0.1848
264.6144	0.1824
264.8286	0.1752
265.0427	0.1798
265.2569	0.1784
265.471	0.1814
265.6851	0.1731
265.8993	0.1698
266.1134	0.1759
266.3275	0.181
266.5415	0.1772
266.7556	0.1831
266.9697	0.1756
267.1837	0.173
267.3978	0.178
267.6118	0.1847
267.8258	0.1834
268.0398	0.185
268.2538	0.1841
268.4677	0.1849
268.6817	0.1934
268.8957	0.1874
269.1096	0.1789
269.3235	0.1861
269.5374	0.179
269.7514	0.1699
269.9652	0.1645
270.1791	0.1527
270.393	0.1478
270.6068	0.1448
270.8207	0.1412
271.0345	0.1572
271.2483	0.1467
271.4622	0.1442
271.676	0.1422
271.8897	0.1402
272.1035	0.1371
272.3173	0.1426
272.531	0.1422
272.7448	0.14
272.9585	0.1346
273.1722	0.1323
273.3859	0.1342
273.5996	0.1324
273.8133	0.1349
274.0269	0.1341
274.2406	0.1346
274.4542	0.1295
274.6679	0.1316
274.8815	0.1376
275.0951	0.1316
275.3087	0.1295
275.5223	0.1345
275.7358	0.1293
275.9494	0.1464
276.1629	0.1271
276.3765	0.1333
276.59	0.1377
276.8035	0.1358
277.017	0.1381
277.2305	0.1421
277.444	0.1344
277.6574	0.1376
277.8709	0.142
278.0843	0.1433
278.2978	0.1338
278.5112	0.1377
278.7246	0.131
278.938	0.1404
279.1513	0.1444
279.3647	0.1447
279.5781	0.1286
279.7914	0.1415
280.0047	0.1385
280.2181	0.1481
280.4314	0.143
280.6447	0.1411
280.8579	0.1492
281.0712	0.143
281.2845	0.1432
281.4977	0.1431
281.711	0.1498
281.9242	0.1475
282.1374	0.1435
282.3506	0.1372
282.5638	0.147
282.7769	0.146
282.9901	0.1438
283.2033	0.1512
283.4164	0.1517
283.6295	0.1603
283.8426	0.152
284.0557	0.1424
284.2688	0.1458
284.4819	0.1518
284.695	0.1536
284.908	0.1543
285.1211	0.152
285.3341	0.1591
285.5471	0.1559
285.7601	0.1511
285.9731	0.1569
286.1861	0.165
286.3991	0.1608
286.612	0.1522
286.825	0.1582
287.0379	0.1588
287.2508	0.1542
287.4637	0.1575
287.6766	0.1529
287.8895	0.1624
288.1024	0.1569
288.3152	0.1606
288.5281	0.1614
288.7409	0.1593
288.9538	0.1622
289.1666	0.1673
289.3794	0.1613
289.5922	0.1685
289.8049	0.1635
290.0177	0.1657
290.2304	0.1625
290.4432	0.1654
290.6559	0.1606
290.8686	0.16
291.0813	0.1606
291.294	0.1729
291.5067	0.1644
291.7194	0.1667
291.932	0.1633
292.1447	0.166
292.3573	0.1625
292.5699	0.1715
292.7825	0.1592
292.9951	0.1655
293.2077	0.1631
293.4203	0.1666
293.6328	0.1712
293.8454	0.1669
294.0579	0.1665
294.2704	0.1703
294.4829	0.1684
294.6954	0.1677
294.9079	0.1752
295.1204	0.1697
295.3328	0.1694
295.5453	0.1628
295.7577	0.1662
295.9701	0.1558
296.1825	0.1649
296.3949	0.1608
296.6073	0.1636
296.8197	0.1659
297.0321	0.166
297.2444	0.1564
297.4567	0.1622
297.6691	0.1668
297.8814	0.1645
298.0937	0.16
298.306	0.1684
298.5182	0.1618
298.7305	0.1645
298.9428	0.1603
299.155	0.1652
299.3672	0.1633
299.5794	0.1717
299.7916	0.1687
300.0038	0.1519
300.216	0.17
300.4282	0.1571
300.6403	0.1636
300.8525	0.1635
301.0646	0.1744
301.2767	0.1716
301.4888	0.1645
301.7009	0.1717
301.913	0.169
302.125	0.1626
302.3371	0.1695
302.5491	0.1647
302.7612	0.1698
302.9732	0.1727
303.1852	0.1586
303.3972	0.1673
303.6092	0.1657
303.8211	0.1643
304.0331	0.1606
304.245	0.1617
304.457	0.1599
304.6689	0.1616
304.8808	0.1595
305.0927	0.1617
305.3046	0.1572
305.5164	0.1579
305.7283	0.1609
305.9401	0.1569
306.152	0.1461
306.3638	0.1665
306.5756	0.1481
306.7874	0.1481
306.9992	0.1454
307.2109	0.134
307.4227	0.1405
307.6344	0.1428
307.8462	0.1383
308.0579	0.137
308.2696	0.1272
308.4813	0.1391
308.693	0.1391
308.9046	0.1258
309.1163	0.1257
309.328	0.1137
309.5396	0.1229
309.7512	0.1265
309.9628	0.1175
310.1744	0.1251
310.386	0.1144
310.5976	0.1182
310.8091	0.118
311.0207	0.1164
311.2322	0.118
311.4437	0.1199
311.6552	0.1179
311.8667	0.1083
312.0782	0.109
312.2897	0.1015
312.5012	0.115
312.7126	0.0943
312.924	0.0913
313.1355	0.1026
313.3469	0.1027
313.5583	0.1052
313.7696	0.0993
313.981	0.1018
314.1924	0.0956
314.4037	0.0977
314.6151	0.0905
314.8264	0.1011
315.0377	0.1003
315.249	0.0997
315.4603	0.0944
315.6716	0.091
315.8828	0.0949
316.0941	0.092
316.3053	0.0911
316.5165	0.0917
316.7277	0.0904
316.9389	0.0936
317.1501	0.0871
317.3613	0.0869
317.5724	0.088
317.7836	0.0911
317.9947	0.0947
318.2058	0.0898
318.417	0.0853
318.6281	0.0912
318.8391	0.0869
319.0502	0.082
319.2613	0.0884
319.4723	0.0853
319.6834	0.09
319.8944	0.0949
320.1054	0.0879
320.3164	0.0977
320.5274	0.0894
320.7383	0.0811
320.9493	0.0896
321.1602	0.0875
321.3712	0.0962
321.5821	0.0916
321.793	0.0864
322.0039	0.0897
322.2148	0.0944
322.4257	0.0986
322.6365	0.089
322.8474	0.0917
323.0582	0.1012
323.269	0.0924
323.4798	0.093
323.6906	0.0909
323.9014	0.0914
324.1122	0.0966
324.3229	0.0912
324.5337	0.0822
324.7444	0.0934
324.9551	0.0886
325.1658	0.0968
325.3765	0.0896
325.5872	0.0953
325.7979	0.0959
326.0085	0.0988
326.2192	0.0892
326.4298	0.0965
326.6404	0.0914
326.851	0.0874
327.0616	0.0947
327.2722	0.0971
327.4828	0.0949
327.6933	0.0939
327.9039	0.0965
328.1144	0.0941
328.3249	0.0995
328.5354	0.099
328.7459	0.0963
328.9564	0.1028
329.1669	0.096
329.3773	0.0974
329.5878	0.1018
329.7982	0.0998
330.0086	0.0992
330.219	0.1056
330.4294	0.0899
330.6398	0.0983
330.8502	0.0981
331.0605	0.0958
331.2708	0.0965
331.4812	0.0901
331.6915	0.0996
331.9018	0.0957
332.1121	0.0977
332.3224	0.0976
332.5326	0.0898
332.7429	0.0994
332.9531	0.0987
333.1633	0.1086
333.3735	0.1029
333.5837	0.0957
333.7939	0.1059
334.0041	0.1003
334.2143	0.0968
334.4244	0.0954
334.6346	0.0981
334.8447	0.1028
335.0548	0.1009
335.2649	0.0937
335.475	0.0943
335.685	0.1025
335.8951	0.0998
336.1051	0.0947
336.3152	0.1074
336.5252	0.0986
336.7352	0.0984
336.9452	0.0965
337.1552	0.0993
337.3652	0.1013
337.5751	0.107
337.7851	0.098
337.995	0.1056
338.2049	0.0964
338.4148	0.1026
338.6247	0.1074
338.8346	0.0931
339.0445	0.1055
339.2543	0.1048
339.4642	0.1094
339.674	0.1052
339.8838	0.1047
340.0936	0.1106
340.3034	0.1132
340.5132	0.1111
340.7229	0.1158
340.9327	0.1133
341.1424	0.1085
341.3522	0.1084
341.5619	0.1117
341.7716	0.1184
341.9813	0.1135
342.1909	0.1166
342.4006	0.1055
342.6102	0.1049
342.8199	0.1144
343.0295	0.1043
343.2391	0.1121
343.4487	0.1156
343.6583	0.1133
343.8679	0.1134
344.0774	0.1166
344.287	0.116
344.4965	0.1155
344.706	0.1255
344.9155	0.1226
345.125	0.1263
345.3345	0.1235
345.544	0.1126
345.7534	0.1153
345.9629	0.1238
346.1723	0.1223
346.3817	0.13
346.5911	0.1338
346.8005	0.1135
347.0099	0.1148
347.2193	0.1235
347.4286	0.1277
347.638	0.134
347.8473	0.1229
348.0566	0.1361
348.2659	0.1236
348.4752	0.1285
348.6845	0.1246
348.8937	0.1363
349.103	0.1237
349.3122	0.1299
349.5214	0.1378
349.7306	0.1241
349.9398	0.1296
350.149	0.1273
350.3582	0.1271
350.5674	0.133
350.7765	0.1349
350.9856	0.1342
351.1948	0.132
351.4039	0.1385
351.613	0.1287
351.822	0.1366
352.0311	0.1297
352.2402	0.1393
352.4492	0.1297
352.6582	0.1406
352.8672	0.1263
353.0762	0.1478
353.2852	0.1489
353.4942	0.1478
353.7032	0.1437
353.9121	0.1477
354.1211	0.1444
354.33	0.141
354.5389	0.1471
354.7478	0.1451
354.9567	0.1483
355.1655	0.1518
355.3744	0.1478
355.5833	0.1522
355.7921	0.1503
356.0009	0.1527
356.2097	0.1479
356.4185	0.1509
356.6273	0.1551
356.8361	0.1499
357.0448	0.1532
357.2536	0.1503
357.4623	0.1471
357.671	0.1538
357.8797	0.1655
358.0884	0.1638
358.2971	0.1609
358.5057	0.1702
358.7144	0.1613
358.923	0.1646
359.1316	0.1684
359.3402	0.1793
359.5488	0.1658
359.7574	0.1736
359.966	0.1739
360.1746	0.1721
360.3831	0.1738
360.5916	0.1829
360.8002	0.1833
361.0087	0.1737
361.2172	0.1848
361.4256	0.1765
361.6341	0.1828
361.8426	0.1758
362.051	0.1723
362.2594	0.1776
362.4678	0.1913
362.6762	0.1843
362.8846	0.1856
363.093	0.1862
363.3014	0.1863
363.5097	0.1927
363.718	0.193
363.9264	0.1836
364.1347	0.1973
364.343	0.191
364.5513	0.1865
364.7595	0.1915
364.9678	0.2004
365.176	0.2061
365.3842	0.1881
365.5925	0.1974
365.8007	0.1871
366.0089	0.2047
366.217	0.2017
366.4252	0.2058
366.6333	0.2015
366.8415	0.202
367.0496	0.2036
367.2577	0.2191
367.4658	0.2088
367.6739	0.1973
367.882	0.214
368.09	0.2131
368.2981	0.2177
368.5061	0.2094
368.7141	0.2148
368.9221	0.2163
369.1301	0.2172
369.3381	0.2194
369.5461	0.2219
369.754	0.2193
369.962	0.2063
370.1699	0.2292
370.3778	0.2212
370.5857	0.2204
370.7936	0.2191
371.0015	0.2289
371.2093	0.2265
371.4172	0.2238
371.625	0.2279
371.8328	0.2321
372.0406	0.2359
372.2484	0.2307
372.4562	0.2319
372.664	0.2253
372.8717	0.2292
373.0795	0.2272
373.2872	0.2354
373.4949	0.2243
373.7026	0.2344
373.9103	0.2367
374.118	0.2469
374.3256	0.2315
374.5333	0.2222
374.7409	0.2355
374.9485	0.2311
375.1561	0.245
375.3637	0.2345
375.5713	0.2486
375.7789	0.2339
375.9864	0.2394
376.194	0.2513
376.4015	0.2556
376.609	0.2442
376.8165	0.2443
377.024	0.2423
377.2315	0.2459
377.4389	0.2383
377.6464	0.2474
377.8538	0.2593
378.0612	0.2463
378.2686	0.2444
378.476	0.2603
378.6834	0.2605
378.8908	0.2547
379.0981	0.2622
379.3055	0.2625
379.5128	0.2468
379.7201	0.2625
379.9274	0.2632
380.1347	0.2619
380.342	0.2708
380.5492	0.257
380.7565	0.2523
380.9637	0.2675
381.1709	0.2547
381.3781	0.25
381.5853	0.2667
381.7925	0.2617
381.9997	0.2614
382.2068	0.2686
382.4139	0.2625
382.6211	0.2687
382.8282	0.2619
383.0353	0.2634
383.2424	0.2654
383.4494	0.2842
383.6565	0.2704
383.8635	0.2748
384.0706	0.2609
384.2776	0.2658
384.4846	0.2636
384.6916	0.2725
384.8986	0.2781
385.1055	0.2653
385.3125	0.2779
385.5194	0.2683
385.7263	0.2736
385.9333	0.2732
386.1402	0.2671
386.347	0.2649
386.5539	0.2693
386.7608	0.27
386.9676	0.2788
387.1744	0.2684
387.3813	0.2649
387.5881	0.2663
387.7948	0.2645
388.0016	0.2628
388.2084	0.2678
388.4151	0.257
388.6219	0.2746
388.8286	0.2739
389.0353	0.2594
389.242	0.273
389.4487	0.2609
389.6553	0.2645
389.862	0.2502
390.0686	0.2583
390.2753	0.2682
390.4819	0.2609
390.6885	0.2663
390.8951	0.2546
391.1016	0.2736
391.3082	0.2593
391.5147	0.2605
391.7213	0.2468
391.9278	0.2483
392.1343	0.2545
392.3408	0.2403
392.5473	0.2456
392.7537	0.2573
392.9602	0.239
393.1666	0.2412
393.373	0.2427
393.5794	0.2486
393.7858	0.2409
393.9922	0.2399
394.1986	0.2382
394.4049	0.252
394.6113	0.2342
394.8176	0.2285
395.0239	0.2271
395.2302	0.2372
395.4365	0.2373
395.6428	0.2219
395.8491	0.2376
396.0553	0.2328
396.2615	0.2466
396.4678	0.2438
396.674	0.2258
396.8802	0.2349
397.0863	0.2378
397.2925	0.2352
397.4987	0.2259
397.7048	0.2293
397.9109	0.2379
398.117	0.231
398.3231	0.2295
398.5292	0.2207
398.7353	0.2304
398.9413	0.2269
399.1474	0.2252
399.3534	0.2259
399.5594	0.2262
399.7654	0.2297
399.9714	0.2255
400.1774	0.2288
400.3833	0.2286
400.5893	0.2153
400.7952	0.2121
401.0011	0.2278
401.207	0.2254
401.4129	0.2173
401.6188	0.2088
401.8247	0.226
402.0305	0.2256
402.2364	0.2274
402.4422	0.2188
402.648	0.2482
402.8538	0.2221
403.0596	0.2126
403.2654	0.2206
403.4711	0.2278
403.6768	0.2407
403.8826	0.2232
404.0883	0.2339
404.294	0.2322
404.4997	0.2227
404.7054	0.2243
404.911	0.234
405.1167	0.2309
405.3223	0.2256
405.5279	0.2258
405.7335	0.2218
405.9391	0.2267
406.1447	0.2182
406.3502	0.2229
406.5558	0.2207
406.7613	0.2203
406.9668	0.2192
407.1724	0.2235
407.3778	0.2226
407.5833	0.2265
407.7888	0.2393
407.9942	0.2319
408.1997	0.2287
408.4051	0.2334
408.6105	0.238
408.8159	0.2377
409.0213	0.2236
409.2267	0.2211
409.432	0.2284
409.6374	0.2301
409.8427	0.2279
410.048	0.2352
410.2533	0.2125
410.4586	0.2237
410.6639	0.2149
410.8691	0.228
411.0744	0.2262
411.2796	0.2332
411.4848	0.2025
411.69	0.232
411.8952	0.2164
412.1004	0.2117
412.3056	0.2294
412.5107	0.2322
412.7158	0.2169
412.921	0.2193
413.1261	0.2206
413.3312	0.2325
413.5362	0.217
413.7413	0.2156
413.9464	0.2307
414.1514	0.2052
414.3564	0.2166
414.5614	0.2298
414.7664	0.2301
414.9714	0.2187
415.1764	0.2199
415.3813	0.214
415.5863	0.2297
415.7912	0.2139
415.9961	0.2284
416.201	0.241
416.4059	0.2178
416.6108	0.2099
416.8156	0.2159
417.0205	0.2262
417.2253	0.2199
417.4301	0.2287
417.6349	0.2248
417.8397	0.2132
418.0445	0.2013
418.2492	0.2096
418.454	0.2172
418.6587	0.2142
418.8634	0.2085
419.0681	0.2157
419.2728	0.2088
419.4775	0.2199
419.6822	0.2208
419.8868	0.202
420.0915	0.2163
420.2961	0.2132
420.5007	0.1991
420.7053	0.2026
420.9099	0.1982
421.1144	0.2084
421.319	0.201
421.5235	0.2164
421.728	0.1978
421.9325	0.2018
422.137	0.1948
422.3415	0.2055
422.546	0.2074
422.7504	0.2029
422.9549	0.2077
423.1593	0.2043
423.3637	0.2004
423.5681	0.2062
423.7725	0.1988
423.9769	0.1907
424.1812	0.2002
424.3856	0.1984
424.5899	0.2085
424.7942	0.1944
424.9985	0.1964
425.2028	0.1764
425.4071	0.1917
425.6113	0.1815
425.8156	0.1861
426.0198	0.1988
426.224	0.175
426.4282	0.1851
426.6324	0.181
426.8366	0.1893
427.0407	0.1835
427.2449	0.1769
427.449	0.1771
427.6531	0.1787
427.8572	0.1707
428.0613	0.1656
428.2654	0.1845
428.4694	0.1796
428.6735	0.1698
428.8775	0.1643
429.0815	0.1782
429.2855	0.1653
429.4895	0.1636
429.6935	0.1632
429.8975	0.1681
430.1014	0.1531
430.3053	0.1564
430.5093	0.1638
430.7132	0.154
430.9171	0.1576
431.1209	0.1567
431.3248	0.152
431.5286	0.1609
431.7325	0.1517
431.9363	0.1481
432.1401	0.1505
432.3439	0.145
432.5477	0.1464
432.7514	0.1332
432.9552	0.1302
433.1589	0.1359
433.3627	0.1387
433.5664	0.1304
433.7701	0.1322
433.9737	0.1286
434.1774	0.1265
434.3811	0.125
434.5847	0.1221
434.7883	0.1194
434.9919	0.116
435.1955	0.1155
435.3991	0.113
435.6027	0.1204
435.8062	0.1171
436.0098	0.1156
436.2133	0.1032
436.4168	0.1102
436.6203	0.1083
436.8238	0.1111
437.0272	0.1076
437.2307	0.1086
437.4341	0.1067
437.6375	0.1047
437.841	0.1034
438.0443	0.0953
438.2477	0.0968
438.4511	0.1019
438.6545	0.0957
438.8578	0.0918
439.0611	0.0894
439.2644	0.087
439.4677	0.0821
439.671	0.0873
439.8743	0.1026
440.0775	0.0766
440.2808	0.0689
440.484	0.0811
440.6872	0.0684
440.8904	0.069
441.0936	0.0834
441.2967	0.0728
441.4999	0.0722
441.703	0.0614
441.9062	0.0686
442.1093	0.058
442.3124	0.0667
442.5155	0.0634
442.7185	0.0613
442.9216	0.0689
443.1246	0.0704
443.3276	0.0566
443.5307	0.0422
443.7337	0.0609
443.9366	0.0607
444.1396	0.0569
444.3426	0.0537
444.5455	0.0543
444.7484	0.0459
444.9513	0.0535
445.1542	0.0544
445.3571	0.0505
445.56	0.0414
445.7628	0.0447
445.9657	0.0609
446.1685	0.0509
446.3713	0.0481
446.5741	0.0478
446.7769	0.0486
446.9797	0.0486
447.1824	0.041
447.3852	0.0437
447.5879	0.0436
447.7906	0.0424
447.9933	0.0375
448.196	0.0531
448.3986	0.0316
448.6013	0.0337
448.8039	0.0319
449.0066	0.0316
449.2092	0.0364
449.4118	0.0302
449.6143	0.0337
449.8169	0.0219
450.0195	0.0238
450.222	0.0165
450.4245	0.0236
450.627	0.0246
450.8295	0.0255
451.032	0.0351
451.2345	0.021
451.4369	0.028
451.6394	0.0224
451.8418	0.0176
452.0442	0.0181
452.2466	0.0157
452.449	0.0192
452.6513	0.0165
452.8537	0.0165
453.056	0.0235
453.2583	0.013
453.4607	0.0282
453.663	0.0313
453.8652	0.0203
454.0675	0.0219
454.2697	0.0257
454.472	0.0148
454.6742	0.0162
454.8764	0.014
455.0786	0.0193
455.2808	0.016
455.4829	0.0136
455.6851	0.0177
455.8872	-0.0015
456.0893	0.0113
456.2915	0.0066
456.4935	0.0107
456.6956	0.0092
456.8977	0.0043
457.0997	0.0027
457.3018	0.015
457.5038	0.0115
457.7058	0.0082
457.9078	0.012
458.1098	0.0129
458.3117	0.0049
458.5137	0.0109
458.7156	0.0161
458.9175	0.0052
459.1194	0.0132
459.3213	0.0037
459.5232	0.0127
459.725	-0.0035
459.9269	0.0102
460.1287	0.0162
460.3305	0.0012
460.5323	0.0095
460.7341	-0.0031
460.9359	0.0036
461.1376	0.012
461.3394	0.0078
461.5411	0.0065
461.7428	-0.0069
461.9445	-0.0015
462.1462	0.0081
462.3479	0.0107
462.5495	0.0071
462.7512	0.0014
462.9528	-0.0011
463.1544	0.0031
463.356	-0.0036
463.5576	0.0022
463.7592	0.0005
463.9607	0.0086
464.1623	-0.0032
464.3638	0.0071
464.5653	-0.0016
464.7668	0.0002
464.9683	0.0085
465.1697	0.0005
465.3712	0.008
465.5726	0.0009
465.7741	-0.0025
465.9755	-0.0008
466.1769	-0.0079
466.3782	-0.007
466.5796	-0.003
466.7809	-0.0058
466.9823	-0.005
467.1836	-0.0007
467.3849	0.0073
467.5862	-0.0058
467.7875	-0.0159
467.9887	-0.0029
468.19	-0.0013
468.3912	-0.0002
468.5924	0.0036
468.7936	-0.0055
468.9948	0.0067
469.196	-0.0097
469.3972	0.0119
469.5983	0.0095
469.7994	-0.01
470.0006	0.005
470.2017	0.0011
470.4027	0.0034
470.6038	-0.0022
470.8049	-0.0103
471.0059	0.0041
471.2069	0.0083
471.408	0.0007
471.6089	-0.0101
471.8099	-0.004
472.0109	-0.0052
472.2119	-0.0075
472.4128	-0.0044
472.6137	-0.012
472.8146	-0.0036
473.0155	-0.0052
473.2164	-0.0186
473.4173	-0.0191
473.6181	0.0011
473.819	-0.0016
474.0198	-0.0024
474.2206	0.003
474.4214	-0.0055
474.6222	-0.0124
474.8229	-0.0076
475.0237	0.0023
475.2244	-0.0051
475.4251	-0.0094
475.6258	0.0059
475.8265	0.0012
476.0272	-0.01
476.2278	-0.0069
476.4285	-0.0043
476.6291	-0.0091
476.8297	-0.0017
477.0303	-0.0102
477.2309	0.0035
477.4315	0.0017
477.632	-0.0089
477.8326	-0.0036
478.0331	-0.0098
478.2336	-0.0007
478.4341	-0.0025
478.6346	-0.0085
478.8351	-0.0068
479.0355	-0.0174
479.236	-0.0086
479.4364	0.0033
479.6368	0.007
479.8372	-0.005
480.0376	0.0009
480.2379	-0.0058
480.4383	-0.0006
480.6386	-0.0018
480.8389	-0.0124
481.0392	-0.0061
481.2395	-0.0088
481.4398	0.0017
481.6401	-0.0134
481.8403	-0.0077
482.0405	-0.0126
482.2408	0.003
482.441	-0.0043
482.6411	0.0017
482.8413	-0.0015
483.0415	-0.0066
483.2416	-0.0078
483.4417	-0.0046
483.6419	0.0046
483.8419	-0.01
484.042	-0.0051
484.2421	0.0006
484.4422	-0.0036
484.6422	-0.0083
484.8422	-0.0128
485.0422	-0.0072
485.2422	-0.0061
485.4422	-0.003
485.6422	-0.0084
485.8421	-0.0019
486.042	-0.0024
486.242	-0.0133
486.4419	-0.005
486.6417	-0.006
486.8416	-0.0026
487.0415	-0.0084
487.2413	-0.0069
487.4411	-0.0003
487.641	-0.0063
487.8408	-0.0064
488.0405	-0.0082
488.2403	-0.0091
488.4401	-0.0066
488.6398	-0.0088
488.8395	-0.0116
489.0392	-0.0054
489.2389	-0.0039
489.4386	-0.0045
489.6383	-0.0095
489.8379	-0.0101
490.0376	-0.0015
490.2372	-0.0059
490.4368	-0.0088
490.6364	-0.0048
490.836	-0.0118
491.0355	-0.0042
491.2351	-0.0074
491.4346	-0.0039
491.6341	-0.0057
491.8336	-0.007
492.0331	-0.0051
492.2326	-0.0104
492.432	-0.0014
492.6315	-0.0001
492.8309	-0.0064
493.0303	-0.0089
493.2297	-0.007
493.4291	-0.0108
493.6284	-0.0027
493.8278	-0.0017
494.0271	-0.01
494.2264	-0.0075
494.4257	-0.0049
494.625	0.002
494.8243	0.0025
495.0236	-0.0106
495.2228	-0.0026
495.422	-0.0062
495.6213	-0.0078
495.8205	0.0005
496.0196	-0.0046
496.2188	-0.0029
496.418	-0.0034
496.6171	0.0003
496.8162	-0.0043
497.0153	0.0007
497.2144	0.0035
497.4135	-0.0038
497.6126	-0.0048
497.8116	0.0041
498.0107	-0.006
498.2097	-0.0057
498.4087	-0.0041
498.6077	-0.0049
498.8067	-0.0076
499.0056	-0.0038
499.2046	0.0033
499.4035	-0.0133
499.6024	-0.0059
499.8013	-0.0067
500.0002	-0.009
500.199	-0.0022
500.3979	-0.0034
500.5967	-0.0087
500.7956	-0.0134
500.9944	-0.0037
501.1932	-0.0043
501.3919	-0.0111
501.5907	-0.0049
501.7895	-0.0056
501.9882	-0.0095
502.1869	-0.0076
502.3856	0.0016
502.5843	-0.0109
502.783	-0.0085
502.9816	-0.0097
503.1803	-0.0009
503.3789	-0.0058
503.5775	-0.0013
503.7761	-0.009
503.9747	-0.0161
504.1732	-0.007
504.3718	-0.005
504.5703	-0.0047
504.7689	-0.002
504.9674	-0.0045
505.1658	-0.0116
505.3643	-0.0069
505.5628	0.0044
505.7612	-0.0097
505.9597	-0.0068
506.1581	-0.0018
506.3565	-0.0013
506.5549	-0.0039
506.7532	-0.0127
506.9516	-0.0023
507.1499	-0.0069
507.3482	-0.0127
507.5465	-0.0017
507.7448	-0.0039
507.9431	0.0005
508.1414	-0.0108
508.3396	-0.0085
508.5379	0.0022
508.7361	0.0023
508.9343	-0.0081
509.1325	-0.0088
509.3306	0.001
509.5288	-0
509.7269	-0.011
509.9251	-0.0095
510.1232	-0.0028
510.3213	-0.0065
510.5193	0.0027
510.7174	-0.0043
510.9154	-0.0074
511.1135	-0.0083
511.3115	-0.0074
511.5095	-0.0091
511.7075	-0.0055
511.9055	-0.0072
512.1034	-0.0054
512.3014	-0.0037
512.4993	-0.0001
512.6972	-0.0057
512.8951	-0.0012
513.093	-0.0095
513.2908	-0.0003
513.4887	0.0034
513.6865	-0.0018
513.8844	-0.0081
514.0822	-0.0045
514.2799	-0.007
514.4777	-0.0012
514.6755	-0.0023
514.8732	-0.0095
515.0709	-0.0057
515.2687	-0.0046
515.4664	-0.0014
515.664	-0.0009
515.8617	-0.0057
516.0594	-0.0104
516.257	-0.0027
516.4546	-0.0112
516.6522	-0.0102
516.8498	-0.0097
517.0474	-0.0028
517.2449	-0.0126
517.4425	-0.0052
517.64	-0.0069
517.8375	-0.0071
518.035	-0.0005
518.2325	-0.0055
518.43	0.0001
518.6274	-0.0022
518.8249	0.0029
519.0223	-0.0091
519.2197	-0.0062
519.4171	-0.0048
519.6145	-0.0062
519.8118	-0.0123
520.0092	-0.0016
520.2065	-0.0084
520.4038	-0.0044
520.6011	-0.013
520.7984	-0.0064
520.9956	-0.0075
521.1929	-0.0016
521.3901	-0.012
521.5874	-0.0082
521.7846	-0.0014
521.9818	-0.0037
522.1789	-0.0027
522.3761	-0.0077
522.5732	-0.0027
522.7704	-0.0002
522.9675	-0.0061
523.1646	-0.0047
523.3617	-0.0005
523.5587	-0.0057
523.7558	-0.0012
523.9528	-0.0086
524.1498	-0.0077
524.3468	-0.0018
524.5438	-0.0102
524.7408	-0.0142
524.9378	-0.0036
525.1347	-0.001
525.3316	-0.0022
525.5285	-0.0077
525.7254	-0.0071
525.9223	-0.0033
526.1192	-0.0057
526.316	-0.0042
526.5129	-0.002
526.7097	-0.0073
526.9065	-0.0041
527.1033	-0.0028
527.3	-0.007
527.4968	-0.006
527.6935	0.0003
527.8903	0.0019
528.087	-0.0153
528.2837	-0.003
528.4804	-0.0083
528.677	-0.0031
528.8737	-0.0114
529.0703	-0.0012
529.2669	-0.0006
529.4635	-0.0059
529.6601	-0.0089
529.8567	-0.0033
530.0532	-0.0032
530.2498	0.0005
530.4463	-0.0031
530.6428	0.0023
530.8393	-0.0056
531.0358	-0.0078
531.2322	-0.0108
531.4287	-0.0158
531.6251	-0.0081
531.8215	0.0039
532.0179	-0.0037
532.2143	0.0049
532.4107	-0.0008
532.607	-0.0082
532.8034	-0.0014
532.9997	0.002
533.196	-0.0053
533.3923	-0.0026
533.5886	0
533.7848	-0.0017
533.9811	-0.0022
534.1773	-0.0091
534.3735	-0.0023
534.5697	-0.0088
534.7659	-0.0023
534.9621	-0.002
535.1582	-0.009
535.3544	-0.0115
535.5505	-0.0086
535.7466	-0.0007
535.9427	-0.0029
536.1387	0.0058
536.3348	-0.0004
536.5308	-0.005
536.7269	0.0005
536.9229	-0.0014
537.1189	-0.0123
537.3148	-0.0006
537.5108	-0.0013
537.7068	-0.0007
537.9027	-0.0043
538.0986	-0.0014
538.2945	0.0003
538.4904	-0.0118
538.6863	-0.0051
538.8821	-0.0041
539.078	-0.009
539.2738	-0.0125
539.4696	-0.0038
539.6654	-0.0054
539.8611	-0.004
540.0569	-0.0045
540.2526	-0.0067
540.4484	0.0049
540.6441	-0.0011
540.8398	-0.0047
541.0355	-0.0031
541.2311	0.004
541.4268	-0.0024
541.6224	0.002
541.818	-0.0057
542.0136	-0.0007
542.2092	-0.0026
542.4048	-0.011
542.6003	-0.0071
542.7959	0.0036
542.9914	-0.0075
543.1869	-0.0119
543.3824	-0.0091
543.5779	-0.0089
543.7734	-0.0077
543.9688	-0.0134
544.1642	-0.0071
544.3596	-0.0087
544.555	-0.0046
544.7504	-0.0068
544.9458	-0.0059
545.1411	0.0083
545.3365	-0.0014
545.5318	0.0033
545.7271	0.0025
545.9224	0.0056
546.1177	-0.0142
546.3129	0.0021
546.5081	0.0045
546.7034	-0.005
546.8986	-0.0069
547.0938	-0.0028
547.289	-0.0048
547.4841	-0.0032
547.6793	-0.0097
547.8744	-0.0004
548.0695	-0.0028
548.2646	-0.0048
548.4597	0.0022
548.6548	0.0011
548.8498	-0.0012
549.0448	0.0007
549.2399	-0.004
549.4349	-0.0026
549.6298	-0.0035
549.8248	-0.0044
550.0198	-0.0013
550.2147	-0.0026
550.4096	-0.0045
550.6045	-0.006
550.7994	0.0019
550.9943	-0.0006
551.1892	-0.0075
551.384	-0.0053
551.5788	-0.0063
551.7737	-0.0048
551.9685	-0.0026
552.1632	-0.0044
552.358	-0.0086
552.5528	-0.0085
552.7475	-0.0065
552.9422	-0.0033
553.1369	-0.0043
553.3316	-0.0017
553.5263	-0.0055
553.7209	-0.005
553.9156	-0.0005
554.1102	-0.011
554.3048	-0.0057
554.4994	-0.0085
554.694	-0.002
554.8885	-0.0058
555.0831	0.0006
555.2776	0.0006
555.4721	-0.0038
555.6666	-0.0066
555.8611	-0.0068
556.0555	-0.005
556.25	-0.0048
556.4444	-0.0008
556.6388	-0.008
556.8332	-0.0073
557.0276	-0.0079
557.222	-0.0036
557.4163	0.002
557.6107	-0.0087
557.805	-0.0022
557.9993	-0.0016
558.1936	-0.0069
558.3879	-0.0008
558.5821	-0.0074
558.7764	-0.0096
558.9706	-0.0018
559.1648	-0.0029
559.359	-0.0112
559.5532	-0.0031
559.7473	-0.0124
559.9415	-0.0062
560.1356	-0.0115
560.3297	-0.013
560.5238	-0.0005
560.7179	-0.0033
560.9119	0.0019
561.106	-0.0046
561.3	-0.0013
561.494	-0.0082
561.688	-0.0025
561.882	-0.005
562.076	-0.0045
562.2699	-0.0046
562.4639	-0.0051
562.6578	-0.0098
562.8517	-0.0037
563.0456	-0.0045
563.2395	-0.0054
563.4333	-0.0011
563.6272	-0.0046
563.821	-0.01
564.0148	0.0019
564.2086	-0.0083
564.4024	-0.0086
564.5961	-0.005
564.7899	0.0049
564.9836	-0.0015
565.1773	-0.0044
565.371	0.0003
565.5647	-0.0059
565.7584	0.0005
565.952	-0.0009
566.1456	-0.0006
566.3393	-0.0032
566.5329	0.0015
566.7264	-0.0036
566.92	-0.0019
567.1136	-0.0038
567.3071	-0.0019
567.5006	-0.0042
567.6941	-0.0023
567.8876	-0.0034
568.0811	-0.0064
568.2745	-0.0091
568.468	-0.006
568.6614	-0.0087
568.8548	-0.0099
569.0482	-0.0074
569.2416	-0.0008
569.4349	-0.0034
569.6283	-0.0059
569.8216	-0.0051
570.0149	-0.006
570.2082	-0.0032
570.4015	0.0009
570.5947	-0.0025
570.788	-0.0043
570.9812	-0.0045
571.1744	-0.008
571.3676	-0.0057
571.5608	-0.0044
571.754	-0.0121
571.9471	-0.0075
572.1402	-0.006
572.3333	-0.0053
572.5264	0.0043
572.7195	-0.0003
572.9126	-0.0008
573.1057	-0.0027
573.2987	0.0012
573.4917	-0.0077
573.6847	0.0004
573.8777	-0.0079
574.0707	-0.0002
574.2636	-0.0056
574.4566	-0.0042
574.6495	-0.0054
574.8424	-0.0056
575.0353	-0.0033
575.2281	-0.0016
575.421	-0.0047
575.6138	-0.0016
575.8067	0.0026
575.9995	-0.0005
576.1923	-0.0055
576.385	-0.0066
576.5778	-0.0017
576.7706	0.0008
576.9633	-0.0009
577.156	-0.0001
577.3487	-0.0008
577.5414	-0.0011
577.734	0.0036
577.9267	0.0039
578.1193	-0.007
578.3119	-0.0009
578.5045	-0.0033
578.6971	0.0008
578.8897	-0.0038
579.0822	-0.0021
579.2747	0.004
579.4673	0.001
579.6598	-0.0026
579.8522	-0.0021
580.0447	-0.004
580.2372	0.0025
580.4296	0.0066
580.622	0.0024
580.8144	-0.0063
581.0068	-0.002
581.1992	0.0043
581.3915	-0.0035
581.5839	-0.0021
581.7762	-0.0046
581.9685	-0.0037
582.1608	-0.0064
582.353	0.003
582.5453	-0.0076
582.7375	0.0019
582.9298	-0.0024
583.122	0.005
583.3142	0.0035
583.5063	-0.0053
583.6985	-0.0027
583.8906	-0.0085
584.0827	-0.0044
584.2749	-0.0062
584.4669	-0.0046
584.659	-0.007
584.8511	-0.0028
585.0431	-0.0011
585.2352	-0.0044
585.4272	-0.0054
585.6192	-0.0037
585.8111	-0.0051
586.0031	0.0031
586.195	-0.005
586.387	0.0018
586.5789	-0.0015
586.7708	-0.0063
586.9627	-0.0043
587.1545	-0.0063
587.3464	-0.0074
587.5382	-0.0015
587.73	-0.0072
587.9218	-0.0006
588.1136	0.0043
588.3053	-0.0001
588.4971	-0.0066
588.6888	-0.0045
588.8805	-0.0013
589.0722	-0.0016
589.2639	-0.0021
589.4556	-0.0001
589.6472	-0.0017
589.8389	-0.0037
590.0305	-0.0028
590.2221	-0.0013
590.4137	0.0013
590.6052	-0.007
590.7968	-0.0025
590.9883	0.0005
591.1798	-0.006
591.3713	0.0015
591.5628	-0.0057
591.7543	0.0001
591.9458	-0.0013
592.1372	-0.0038
592.3286	-0.0013
592.52	-0.0044
592.7114	0.0021
592.9028	-0.0054
593.0941	0.0004
593.2855	0.0019
593.4768	-0.0006
593.6681	0.0014
593.8594	0.0039
594.0506	0.0035
594.2419	0.0036
594.4331	-0.0046
594.6244	-0.003
594.8156	-0.0084
595.0067	-0.0032
595.1979	-0.0046
595.3891	-0.0042
595.5802	-0.0056
595.7713	0.003
595.9624	-0.0002
596.1535	0.0028
596.3446	-0.0017
596.5357	-0.0004
596.7267	-0.0011
596.9177	0.0033
597.1087	-0.0032
597.2997	-0.0014
597.4907	-0.0064
597.6817	-0.0019
597.8726	-0.0005
598.0635	-0.0016
598.2544	-0.0056
598.4453	-0.0018
598.6362	-0.005
598.827	-0.0022
599.0179	-0.0019
599.2087	-0.0112
599.3995	0.0002
599.5903	0.0005
599.7811	-0.0034
599.9718	-0.0015
600.1626	-0.0012
600.3533	-0.0007
600.544	-0.0032
600.7347	-0.0014
600.9254	0.0006
601.116	-0.0048
601.3067	-0.0033
601.4973	-0.0049
601.6879	0.0008
601.8785	-0.0075
602.0691	-0.0012
602.2596	-0.002
602.4502	-0.0026
602.6407	-0.0023
602.8312	-0.0015
603.0217	-0.0053
603.2122	-0.0028
603.4027	-0.0036
603.5931	-0.0045
603.7835	-0.0012
603.9739	-0.0013
604.1643	-0.0017
604.3547	-0.005
604.5451	-0.0034
604.7354	-0.0013
604.9257	-0.0027
605.116	-0.0026
605.3063	-0.0004
605.4966	-0.0042
605.6869	-0.0001
605.8771	-0.0012
606.0673	0.0003
606.2575	-0.0019
606.4477	-0.0042
606.6379	-0.012
606.8281	-0.0048
607.0182	-0.0076
607.2083	-0.0039
607.3985	-0.0065
607.5885	0.0011
607.7786	-0.0018
607.9687	-0.0023
608.1587	-0.0045
608.3488	-0.0046
608.5388	-0.0004
608.7288	-0.007
608.9187	-0.0027
609.1087	-0.0115
609.2986	-0.0024
609.4886	-0.0034
609.6785	0.0001
609.8684	0.0005
610.0582	0.0044
610.2481	-0.0057
610.4379	0.0027
610.6278	0.0004
610.8176	-0.0015
611.0074	-0.004
611.1971	-0.0012
611.3869	-0.0044
611.5766	0.0041
611.7664	0.0013
611.9561	-0.0031
612.1458	0.0012
612.3354	0.0003
612.5251	-0.0043
612.7147	-0.001
612.9044	-0.002
613.094	0.0038
613.2836	0
613.4731	-0.0059
613.6627	-0.0035
613.8522	-0.0024
614.0417	-0.0084
614.2313	-0.0037
614.4207	-0.004
614.6102	-0.0007
614.7997	-0.0042
614.9891	-0.0038
615.1785	-0.0018
615.3679	0.0021
615.5573	-0.0011
615.7467	-0.002
615.9361	-0.003
616.1254	-0.0058
616.3147	-0.0003
616.504	-0.0039
616.6933	-0.0023
616.8826	-0.0066
617.0718	-0.0079
617.2611	0.0017
617.4503	0.0001
617.6395	-0.0011
617.8287	-0.0038
618.0179	-0.0015
618.207	-0.003
618.3961	-0.0024
618.5853	-0.0015
618.7744	-0.0018
618.9634	0.0037
619.1525	-0.0015
619.3416	-0.0089
619.5306	-0.0025
619.7196	-0.0017
619.9086	0.0026
620.0976	-0.0031
620.2866	0.0015
620.4755	-0.0011
620.6645	-0.003
620.8534	-0.0006
621.0423	-0.0091
621.2312	-0.005
621.42	0.0023
621.6089	-0.0014
621.7977	-0.0018
621.9865	-0.003
622.1753	0.0014
622.3641	0.0085
622.5529	-0.0004
622.7416	-0.0058
622.9303	0.0008
623.1191	-0.0038
623.3078	-0.0016
623.4964	-0.0025
623.6851	-0.0033
623.8737	0.0011
624.0624	0.0004
624.251	-0.0006
624.4396	-0.0017
624.6282	0.0037
624.8167	0.0045
625.0053	0.0003
625.1938	0.0032
625.3823	0.0046
625.5708	0.0013
625.7593	-0.0018
625.9477	-0.0072
626.1362	-0.0001
626.3246	-0.0008
626.513	-0.0054
626.7014	-0.0038
626.8898	-0.0022
627.0781	-0.0035
627.2665	-0.0033
627.4548	-0.0081
627.6431	-0.0018
627.8314	-0.0079
628.0197	-0.0033
628.2079	-0.0019
628.3962	0.003
628.5844	-0.0004
628.7726	-0.0033
628.9608	0.0019
629.1489	0.0076
629.3371	0.004
629.5252	-0.0002
629.7134	-0.0019
629.9015	-0.0012
630.0895	-0.0038
630.2776	0.0056
630.4657	-0.0026
630.6537	-0.0024
630.8417	-0.0055
631.0297	-0.0003
631.2177	0.002
631.4057	-0.0001
631.5936	0.0014
631.7815	-0.0049
631.9695	-0.0013
632.1574	-0.0071
632.3452	-0.0054
632.5331	-0.0034
632.7209	-0.0082
632.9088	-0.0084
633.0966	-0.0029
633.2844	-0.0064
633.4722	-0.0054
633.6599	-0.0012
633.8477	-0.0002
634.0354	-0.004
634.2231	-0.0069
634.4108	-0.0004
634.5985	0.0006
634.7861	-0.007
634.9738	-0.0042
635.1614	-0.0069
635.349	-0.0026
635.5366	-0.0061
635.7242	0.0013
635.9117	-0.0016
636.0993	-0.0029
636.2868	-0.0015
636.4743	0.0013
636.6618	-0.0066
636.8492	-0.0026
637.0367	-0.0034
637.2241	-0.0026
637.4115	-0.0095
637.5989	0.003
637.7863	0.0017
637.9737	-0.0035
638.161	-0.0029
638.3484	-0.0044
638.5357	-0.0013
638.723	-0.0017
638.9103	-0.0015
639.0975	0.0035
639.2848	-0.0011
639.472	0.004
639.6592	0.0028
639.8464	0.0012
640.0336	-0.0025
640.2208	0.0029
640.4079	-0.0045
640.595	0.003
640.7821	-0.0049
640.9692	-0.0002
641.1563	0.0038
641.3434	0.0016
641.5304	-0.0012
641.7174	0.0021
641.9044	0.0042
642.0914	0.0016
642.2784	0.005
642.4653	0.0039
642.6523	-0.0025
642.8392	0.0067
643.0261	0.0051
643.213	0.0034
643.3999	-0.0023
643.5867	0.001
643.7735	0.0045
643.9604	0.0018
644.1472	-0.0035
644.3339	-0.0022
644.5207	-0.0026
644.7075	-0.0078
644.8942	-0.0027
645.0809	0.0005
645.2676	0.0012
645.4543	0.0065
645.6409	-0.0011
645.8276	-0.0002
646.0142	-0.002
646.2008	-0.0036
646.3874	-0.0067
646.574	-0.0038
646.7605	-0.0007
646.9471	-0.008
647.1336	-0.0018
647.3201	-0.0053
647.5066	0.0002
647.6931	0.0006
647.8795	-0.0053
648.0659	-0.0015
648.2524	-0.0054
648.4388	-0.003
648.6252	-0.0001
648.8115	-0.008
648.9979	-0.0055
649.1842	-0.0056
649.3705	-0.0046
649.5568	-0.0009
649.7431	-0.0042
649.9294	-0.0029
650.1156	-0.0063
650.3018	-0.0062
650.488	-0.0026
650.6742	-0.0001
650.8604	0.0001
651.0466	-0.0011
651.2327	-0.0048
651.4188	0.0035
651.6049	0.0037
651.791	0.0008
651.9771	-0.0016
652.1632	0.001
652.3492	0.0038
652.5352	-0.002
652.7212	-0.0015
652.9072	0.0033
653.0932	0.0032
653.2791	0.0014
653.465	-0.0016
653.651	-0.0086
653.8369	-0.0027
654.0227	0.0003
654.2086	-0.0001
654.3944	-0.0042
654.5803	-0.006
654.7661	-0.0011
654.9519	-0.0006
655.1377	-0.0007
655.3234	-0
655.5092	-0
655.6949	-0
655.8806	-0
656.0663	-0
656.2519	-0
656.4376	-0.0028
656.6232	-0.0017
656.8088	-0.0021
656.9945	-0.0028
657.18	0.0016
657.3656	0.001
657.5511	-0.0046
657.7367	-0.0052
657.9222	0.0033
658.1077	0.0002
658.2932	-0.0003
658.4786	-0.0007
658.6641	-0.0037
658.8495	-0.0057
659.0349	-0.0021
659.2203	-0.0097
659.4057	-0.0063
659.591	-0.0019
659.7764	-0.0052
659.9617	-0.0021
660.147	-0.004
660.3323	-0.005
660.5176	-0.0024
660.7028	-0.0077
660.888	-0.002
661.0733	0.0018
661.2585	-0.0056
661.4436	-0.0033
661.6288	-0.0075
661.8139	-0.0002
661.9991	0.001
662.1842	-0.0003
662.3693	0.0014
662.5544	-0.0013
662.7394	-0.0005
662.9245	-0.0004
663.1095	-0.0018
663.2945	-0.0018
663.4795	-0.0034
663.6644	-0.007
663.8494	-0.0082
664.0343	-0.0016
664.2193	-0.0048
664.4042	-0.0074
664.589	-0.0053
664.7739	-0.0064
664.9587	0.0013
665.1436	0.0022
665.3284	-0.0032
665.5132	0.0005
665.698	0.0044
665.8827	0.0015
666.0675	-0.0036
666.2522	-0.0088
666.4369	-0.0059
666.6216	-0.0083
666.8063	-0.0058
666.9909	-0.0116
667.1756	-0.0067
667.3602	-0.0049
667.5448	-0.0108
667.7294	-0.0043
667.9139	-0.007
668.0985	-0.0119
668.283	-0.0081
668.4675	-0.0154
668.652	-0.0129
668.8365	-0.0067
669.0209	-0.0104
669.2054	-0.0057
669.3898	-0.007
669.5742	-0.0072
669.7586	-0.0026
669.943	-0.0028
670.1273	-0.0076
670.3117	-0.0035
670.496	-0.0036
670.6803	0.0001
670.8646	-0.0048
671.0488	-0.0018
671.2331	-0.0054
671.4173	-0.001
671.6015	0.0022
671.7857	-0.0028
671.9699	-0.0037
672.1541	-0.0085
672.3382	-0.0012
672.5223	-0.0041
672.7064	-0.0082
672.8905	-0.0148
673.0746	-0.0112
673.2587	-0.0156
673.4427	-0.0126
673.6267	-0.0135
673.8107	-0.0105
673.9947	-0.0092
674.1787	-0.0101
674.3626	-0.0066
674.5465	-0.0081
674.7304	-0.0021
674.9143	0.0005
675.0982	-0.0048
675.2821	-0.0048
675.4659	-0.0056
675.6497	0.0035
675.8335	-0.0057
676.0173	-0.0094
676.2011	-0.007
676.3849	-0.0003
676.5686	0.001
676.7523	-0.0045
676.936	-0.0006
677.1197	-0.0061
677.3034	-0.0057
677.487	-0.008
677.6706	-0.0023
677.8542	-0.0018
678.0378	-0.0017
678.2214	-0.01
678.405	-0.0051
678.5885	-0.0072
678.772	-0.0028
678.9555	-0.0005
679.139	-0.0081
679.3225	-0.0074
679.5059	-0.0091
679.6894	-0.0036
679.8728	0.0022
680.0562	-0.0035
680.2395	-0.0059
680.4229	0.0003
680.6062	0.006
680.7896	-0.0001
680.9729	0.002
681.1562	0.0018
681.3394	-0.0013
681.5227	-0.0009
681.7059	-0.0028
681.8891	-0.0038
682.0723	-0.0083
682.2555	-0.0029
682.4387	-0.0019
682.6218	-0.0113
682.805	-0.0074
682.9881	-0.008
683.1712	0.0043
683.3542	-0.0014
683.5373	-0.0096
683.7203	-0.0034
683.9034	-0.0045
684.0864	-0.0082
684.2694	-0.0029
684.4523	-0.0001
684.6353	0.0048
684.8182	0.0001
685.0011	-0.0033
685.184	-0.0034
685.3669	-0.0031
685.5498	-0.0005
685.7326	0.0066
685.9154	-0.0043
686.0982	-0.0065
686.281	-0.0079
686.4638	-0.0042
686.6465	-0.0053
686.8293	-0.0079
687.012	-0.0024
687.1947	-0.0005
687.3774	-0.0046
687.56	-0.0047
687.7427	-0.0014
687.9253	-0.0052
688.1079	0.0046
688.2905	0.0034
688.4731	-0.0006
688.6556	-0.0044
688.8382	0.0006
689.0207	0.0006
689.2032	0.0009
689.3857	0.001
689.5681	-0.0038
689.7506	0.0036
689.933	0.0023
690.1154	-0.0015
690.2978	-0.0041
690.4802	-0.0001
690.6626	0.006
690.8449	0.0025
691.0272	0.0057
691.2095	0.001
691.3918	-0.0051
691.5741	-0.0005
691.7563	0.0017
691.9386	-0.0029
692.1208	-0.006
692.303	-0.001
692.4852	0.0017
692.6673	-0.0059
692.8495	-0.0063
693.0316	0.0008
693.2137	-0.006
693.3958	-0.0009
693.5778	0.003
693.7599	-0.0063
693.9419	-0.0121
694.1239	-0.0063
694.3059	-0.0095
694.4879	-0.0079
694.6699	-0.01
694.8518	-0.0068
695.0337	-0.0038
695.2157	-0.0047
695.3975	-0.01
695.5794	-0.007
695.7613	-0.0096
695.9431	-0.001
696.1249	-0.0049
696.3067	-0.0042
696.4885	0.0043
696.6703	-0.007
696.852	-0.0044
697.0337	0.0021
697.2154	-0.0013
697.3971	-0.0033
697.5788	-0.0092
697.7605	-0.004
697.9421	-0.0058
698.1237	-0.0047
698.3053	-0.0056
698.4869	-0.0018
698.6685	-0.0021
698.85	-0.0042
699.0315	0.0004
699.213	0.0041
699.3945	-0.0012
699.576	0.0098
699.7575	-0.0038
699.9389	0.0002
700.1203	-0.0044
700.3017	-0.0043
700.4831	-0.0049
700.6645	-0.0033
700.8458	-0.0059
701.0271	-0.0016
701.2084	-0.013
701.3897	-0.0084
701.571	0.0043
701.7523	0.0004
701.9335	0.0054
702.1147	0.0033
702.2959	-0.0004
702.4771	0.0009
702.6583	0.0002
702.8394	0.0001
703.0205	0.0023
703.2016	-0.0017
703.3827	0.0067
703.5638	-0.0052
703.7449	-0.0028
703.9259	-0.002
704.1069	-0.0001
704.2879	-0.003
704.4689	-0.0026
704.6499	-0.0042
704.8308	-0.0017
705.0117	0.0011
705.1927	0.0006
705.3735	0.0013
705.5544	0.0006
705.7353	0.0004
705.9161	0.0003
706.0969	0.0049
706.2777	-0.0023
706.4585	-0.0035
706.6393	-0.0007
706.82	-0.0022
707.0007	-0.0037
707.1815	0.0006
707.3621	-0.0025
707.5428	-0.0016
707.7235	0.0001
707.9041	0.0025
708.0847	-0.0011
708.2653	-0.0055
708.4459	-0.0014
708.6265	-0.0052
708.807	-0.0002
708.9875	0.0007
709.168	-0.0045
709.3485	-0.0046
709.529	-0.0064
709.7095	-0.0059
709.8899	-0.0129
710.0703	-0.0008
710.2507	-0.0035
710.4311	-0.0052
710.6115	0.0039
710.7918	-0.0003
710.9721	0.0044
711.1524	0.004
711.3327	0.007
711.513	-0.0063
711.6932	-0.0085
711.8735	0.0032
712.0537	-0.0023
712.2339	-0.001
712.4141	0.0023
712.5942	0.0003
712.7744	0.0033
712.9545	-0.0054
713.1346	-0.0042
713.3147	0.003
713.4947	0.0054
713.6748	-0.0062
713.8548	-0.0056
714.0348	-0.0014
714.2148	-0.0094
714.3948	-0.0055
714.5748	-0.0067
714.7547	-0.0059
714.9346	-0.0026
715.1145	-0.0072
715.2944	-0.0049
715.4743	-0.012
715.6541	-0.0064
715.834	-0.0029
716.0138	-0.0003
716.1936	0.0004
716.3733	-0.005
716.5531	-0.0035
716.7328	-0.0069
716.9126	-0.0016
717.0923	-0.009
717.2719	-0.0107
717.4516	-0.0052
717.6312	-0.0015
717.8109	-0.0013
717.9905	-0.0045
718.1701	-0.0049
718.3496	0.0022
718.5292	-0.0051
718.7087	-0.0017
718.8882	-0.0018
719.0677	-0.0045
719.2472	-0.0009
719.4267	-0.0114
719.6061	-0.0049
719.7856	-0.0076
719.965	-0.0118
720.1443	-0.0018
720.3237	-0.0035
720.5031	-0.0108
720.6824	-0.0055
720.8617	-0.0001
721.041	0.0037
721.2203	-0.0125
721.3995	0.0001
721.5788	-0.0072
721.758	-0.0042
721.9372	-0.0054
722.1164	-0.0058
722.2956	-0.0099
722.4747	-0.0039
722.6538	-0.0079
722.8329	-0.0036
723.012	-0.0015
723.1911	-0.003
723.3702	-0.0027
723.5492	-0.0011
723.7282	0.0003
723.9072	-0.005
724.0862	-0.0032
724.2652	-0.0035
724.4441	-0.0028
724.623	0.0056
724.8019	-0.0014
724.9808	-0.0037
725.1597	-0.0017
725.3385	0.0058
725.5174	0.0031
725.6962	-0.0123
725.875	0.0004
726.0538	0.0003
726.2325	-0.0029
726.4112	-0.0022
726.59	-0.0013
726.7687	0.0049
726.9474	-0.0011
727.126	-0.0002
727.3047	-0.0061
727.4833	-0.0009
727.6619	-0.0077
727.8405	0.0004
728.0191	-0.0022
728.1976	-0.0101
728.3762	-0.0037
728.5547	-0.0102
728.7332	-0.0065
728.9116	-0.0153
729.0901	-0.0134
729.2686	-0.0079
729.447	-0.004
729.6254	-0.0071
729.8038	-0.0084
729.9821	0.0003
730.1605	-0.0012
730.3388	0.0002
730.5171	-0.0004
730.6954	0.0007
730.8737	-0.0021
731.0519	0.0001
731.2302	0.0056
731.4084	0.0061
731.5866	0.0038
731.7648	0.0013
731.9429	0.0028
732.1211	0.0013
732.2992	0.007
732.4773	-0.0013
732.6554	-0.0042
732.8335	-0.0101
733.0115	-0.0112
733.1896	-0.0062
733.3676	-0.0018
733.5456	-0.006
733.7235	-0.0006
733.9015	0.0041
734.0794	0.002
734.2574	-0.0005
734.4353	-0.0001
734.6131	0.0004
734.791	-0.0045
734.9689	0.0006
735.1467	0.002
735.3245	-0.0039
735.5023	-0.0017
735.68	-0.003
735.8578	0.0024
736.0355	0.0094
736.2132	0.0012
736.3909	-0.0031
736.5686	0.0004
736.7463	-0.0046
736.9239	-0.0057
737.1015	0.0015
737.2791	-0.0044
737.4567	-0.0066
737.6343	0.0021
737.8118	-0.0082
737.9894	-0.0039
738.1669	-0.0067
738.3444	-0.0019
738.5218	0.0046
738.6993	0.002
738.8767	0.002
739.0541	-0.0055
739.2315	-0.0035
739.4089	-0.0016
739.5863	-0.0024
739.7636	-0.0051
739.9409	-0.0007
740.1182	-0.0005
740.2955	0.0009
740.4728	-0.002
740.65	0.0009
740.8272	0.0041
741.0044	-0.0037
741.1816	0.002
741.3588	0.0021
741.5359	-0.001
741.7131	0.0017
741.8902	0.0059
742.0673	0.0022
742.2444	-0.0011
742.4214	-0.0043
742.5985	-0.0027
742.7755	-0.0043
742.9525	0.002
743.1295	0.0009
743.3064	-0.0007
743.4834	-0.003
743.6603	-0.0049
743.8372	0.0004
744.0141	-0.0016
744.191	-0.0047
744.3678	-0.0011
744.5446	0.0027
744.7215	-0.0008
744.8982	0.0014
745.075	0.0025
745.2518	-0.005
745.4285	-0.0015
745.6052	0.0017
745.7819	0.0007
745.9586	0.0031
746.1353	-0.0015
746.3119	0.0008
746.4885	-0.0062
746.6651	-0.0065
746.8417	-0.0062
747.0183	-0.0012
747.1948	-0.0052
747.3714	-0.0061
747.5479	0.0013
747.7244	-0.0044
747.9008	-0.0002
748.0773	-0.0003
748.2537	0.0012
748.4301	0.0028
748.6065	-0.0003
748.7829	0.0052
748.9593	0.0012
749.1356	-0.0013
749.3119	-0.0003
749.4882	0.003
749.6645	-0.0014
749.8408	-0.0012
750.017	-0.0108
750.1933	-0.0008
750.3695	-0.0085
750.5457	-0.0084
750.7218	-0.0045
750.898	-0.0075
751.0741	-0.0083
751.2502	0.0001
751.4263	-0
751.6024	-0.0038
751.7784	0.001
751.9545	-0.0011
752.1305	-0.0019
752.3065	-0.0049
752.4825	-0.0028
752.6584	-0.0018
752.8344	-0.0002
753.0103	-0.0034
753.1862	0.0033
753.3621	0.0017
753.5379	-0.0047
753.7138	0.0015
753.8896	-0.0113
754.0654	-0.0059
754.2412	-0.0133
754.417	-0.0091
754.5927	-0.0026
754.7685	-0.0114
754.9442	-0.0098
755.1199	-0.0104
755.2956	-0.0033
755.4712	-0.0026
755.6469	-0.0067
755.8225	-0.0089
755.9981	-0.0062
756.1736	-0.0062
756.3492	-0.0043
756.5248	0.0038
756.7003	-0.0073
756.8758	-0.0112
757.0513	-0.0065
757.2267	-0.0086
757.4022	-0.0107
757.5776	-0.0116
757.753	-0.0073
757.9284	-0.0116
758.1038	-0.011
758.2791	-0.0097
758.4545	-0.0122
758.6298	-0.0062
758.8051	-0.0077
758.9803	-0.0086
759.1556	-0.0049
759.3308	-0.0013
759.506	-0.0028
759.6812	-0.0091
759.8564	-0.0041
760.0316	-0.0086
760.2067	-0.0098
760.3819	-0.0074
760.557	-0.0094
760.732	-0.0102
760.9071	-0.0118
761.0821	-0.0146
761.2572	-0.0138
761.4322	-0.0117
761.6072	-0.0045
761.7821	-0.0079
761.9571	-0.0079
762.132	-0.0072
762.3069	-0.0026
762.4818	-0.0048
762.6567	-0.012
762.8316	0.0005
763.0064	0.0012
763.1812	-0.0039
763.356	-0.0024
763.5308	-0.0009
763.7055	0.0079
763.8803	-0.0047
764.055	-0.0035
764.2297	-0
764.4044	-0.0015
764.579	0.0004
764.7537	-0.0062
764.9283	-0.0006
765.1029	-0.0011
765.2775	-0.0008
765.4521	-0.0003
765.6266	0.0037
765.8011	0.007
765.9756	-0.0015
766.1501	0.011
766.3246	-0.0043
766.4991	-0.007
766.6735	-0.0068
766.8479	-0.0097
767.0223	-0.0061
767.1967	-0.008
767.371	-0.0072
767.5454	-0.0036
767.7197	-0.0055
767.894	-0.0081
768.0683	0.0013
768.2425	-0.0021
768.4168	-0.0075
768.591	0.0071
768.7652	-0.0061
768.9394	0.0018
769.1135	0.0026
769.2877	0.001
769.4618	0.0064
769.6359	-0.0017
769.81	0.0028
769.984	-0.005
770.1581	-0.0021
770.3321	0.0004
770.5061	-0.0027
770.6801	0.0035
770.8541	-0.0048
771.028	0.0041
771.202	0.0074
771.3759	0.0001
771.5498	0.003
771.7236	0.004
771.8975	0.004
772.0713	0.0022
772.2451	0.0064
772.4189	-0.0029
772.5927	-0.0038
772.7665	-0.0121
772.9402	-0.0028
773.1139	-0.0018
773.2876	-0.0047
773.4613	0.0022
773.635	0.0043
773.8086	0.0099
773.9822	0.0053
774.1558	0.0012
774.3294	0.0053
774.503	0.0038
774.6765	0.0008
774.8501	0.0134
775.0236	-0.0152
775.1971	-0.0087
775.3705	0.0058
775.544	-0.0023
775.7174	0.0039
775.8908	-0.0071
776.0642	0.0001
776.2376	-0.0058
776.4109	-0.0097
776.5843	0.0109
776.7576	0.0006
776.9309	-0.0008
777.1041	-0.0025
777.2774	0.0096
777.4506	0.0032
777.6238	-0.0004
777.797	0.0016
777.9702	-0.0055
778.1434	-0.0072
778.3165	0.0051
778.4896	-0.0101
778.6627	-0.0007
778.8358	-0.0024
779.0089	-0.0089
779.1819	-0.0027
779.3549	-0.0068
779.5279	-0.004
779.7009	-0.0071
779.8739	-0.007
780.0468	-0.0044
780.2197	-0
780.3926	-0.0028
780.5655	-0.0056
780.7384	-0.0031
780.9112	-0.0041
781.0841	-0.0034
781.2569	-0.001
781.4297	-0.0044
781.6024	0.0014
781.7752	-0
781.9479	-0.0033
782.1206	0.0015
782.2933	-0.0026
782.466	-0.0018
782.6386	-0.0041
782.8113	-0.0131
782.9839	-0.0045
783.1565	-0.0104
783.329	-0.0054
783.5016	0.0004
783.6741	-0.0078
783.8466	-0.0084
784.0191	-0.0057
784.1916	0.0042
784.3641	-0.0004
784.5365	-0.0026
784.7089	0.0055
784.8813	0.0093
785.0537	0.0083
785.2261	0.0034
785.3984	-0.0076
785.5707	-0.0001
785.743	0.0055
785.9153	-0.0003
786.0876	0.0015
786.2598	0.0074
786.432	0.0026
786.6042	0.0078
786.7764	0.0005
786.9486	-0.0018
787.1207	-0.0034
787.2928	0.0026
787.4649	-0.0104
787.637	-0.0125
787.8091	-0.0035
787.9811	0.0049
788.1532	-0.0017
788.3252	-0.0033
788.4972	-0.0024
788.6691	-0.0046
788.8411	0.0093
789.013	-0.0016
789.1849	-0.0004
789.3568	-0.0034
789.5287	0.0044
789.7005	-0.0027
789.8723	-0.0004
790.0442	-0.0104
790.2159	0.0002
790.3877	-0.0119
790.5595	-0.0053
790.7312	-0.0007
790.9029	-0.0008
791.0746	-0.0019
791.2463	0.0013
791.4179	-0.0053
791.5896	0.0024
791.7612	0.0049
791.9328	0.0027
792.1044	-0.0055
792.2759	0.0062
792.4474	-0.0049
792.619	-0.0043
792.7905	-0.0018
792.9619	0.0028
793.1334	-0.0095
793.3048	-0.0114
793.4762	-0.0026
793.6476	-0.0149
793.819	-0.0119
793.9904	-0.0102
794.1617	-0.0127
794.333	-0.0109
794.5043	-0.0042
794.6756	0.0069
794.8469	0.0035
795.0181	0.0001
795.1893	-0.0076
795.3605	-0.0114
795.5317	0.0002
795.7029	-0.0078
795.874	-0.0057
796.0452	-0.0041
796.2163	-0.0113
796.3873	-0.0147
796.5584	-0.0124
796.7294	-0.0009
796.9005	-0.0098
797.0715	-0.0195
797.2425	-0.0236
797.4134	-0.0058
797.5844	-0.0177
797.7553	-0.0019
797.9262	-0.0057
798.0971	-0.0062
798.2679	-0.0135
798.4388	-0.0084
798.6096	-0.0153
798.7804	-0.0197
798.9512	-0.0173
799.122	-0.0085
799.2927	-0.0172
799.4635	-0.0008
799.6342	-0.0058
799.8049	-0.0088
799.9755	-0.0096
800.1462	-0.0228
800.3168	0.0002
800.4874	-0.0138
800.658	-0.0212
800.8286	-0.0105
800.9991	-0.0125
801.1696	-0.0098
801.3402	-0.0144
801.5106	-0.0155
801.6811	-0.021
801.8516	-0.0107
802.022	-0.0197
802.1924	-0.0153
802.3628	-0.0161
802.5332	-0.0146
802.7035	-0.0166
802.8739	-0.0153
803.0442	-0.0098
803.2145	-0.0168
803.3847	-0.0153
803.555	-0.0174
803.7252	-0.0205
803.8954	-0.0072
804.0656	-0.0048
804.2358	-0.0198
804.4059	-0.0145
804.5761	-0.0108
804.7462	-0.0064
804.9163	-0.0009
805.0864	-0.0066
805.2564	-0.0114
805.4264	-0.0108
805.5965	-0.0117
805.7665	-0.007
805.9364	-0.0034
806.1064	-0.0067
806.2763	-0.0149
806.4462	-0.0111
806.6161	-0.0096
806.786	-0.0111
806.9559	-0.0012
807.1257	-0.0068
807.2955	-0.0121
807.4653	-0.0041
807.6351	-0.0013
807.8048	0.0009
807.9746	-0.0106
808.1443	0.0023
808.314	-0.003
808.4837	0.0066
808.6533	-0.0018
808.8229	-0.0081
808.9926	0.0073
809.1622	-0.0086
809.3317	0.0076
809.5013	-0.0028
809.6708	0.005
809.8403	-0.0032
810.0098	0.0189
810.1793	-0.0133
810.3488	0.0153
810.5182	-0.0037
810.6876	-0.0112
810.857	-0.0046
811.0264	-0.0178
811.1958	0.0027
811.3651	-0.0082
811.5344	-0.0011
811.7037	-0.0125
811.873	-0.0089
812.0422	-0.0072
812.2115	-0.0018
812.3807	-0.0127
812.5499	-0.0029
812.7191	-0.0049
812.8882	-0.0017
813.0574	-0.0047
813.2265	0.0026
813.3956	-0.0023
813.5646	-0.0052
813.7337	0.0014
813.9027	-0.0008
814.0718	-0.0102
814.2407	0.0014
814.4097	0.0057
814.5787	-0.0026
814.7476	-0.005
814.9165	0.0061
815.0854	-0.0058
815.2543	0.0097
815.4232	-0.0088
815.592	0.0059
815.7608	-0.0005
815.9296	-0.0001
816.0984	0.0005
816.2671	0.0011
816.4359	-0.0035
816.6046	0.0086
816.7733	0.004
816.942	0.0001
817.1106	-0.0053
817.2793	-0.0092
817.4479	-0.0111
817.6165	-0.0031
817.785	-0.0021
817.9536	-0.0024
818.1221	-0.0051
818.2906	-0.0029
818.4591	-0.0005
818.6276	0.0021
818.7961	-0.0039
818.9645	0.0044
819.1329	-0.005
819.3013	-0.0154
819.4697	-0.0094
819.638	-0
819.8064	-0
819.9747	-0.0001
820.143	-0.0126
820.3113	0.0012
820.4795	0.0036
820.6477	-0.0166
820.816	-0.0042
820.9842	-0.0029
821.1523	-0.0288
821.3205	-0.0025
821.4886	-0.0058
821.6567	-0.0054
821.8248	-0.0171
821.9929	0.0014
822.1609	0.002
822.329	-0.0057
822.497	-0.0107
822.665	-0.0149
822.833	-0.0174
823.0009	-0.0127
823.1688	-0.0129
823.3367	0.0001
823.5046	-0.0063
823.6725	-0.0175
823.8404	-0.0001
824.0082	-0.0063
824.176	0.0097
824.3438	-0.0214
824.5116	0.0059
824.6793	-0.0117
824.847	-0.0014
825.0147	-0.0045
825.1824	-0.0189
825.3501	-0.0078
825.5177	-0.0024
825.6854	0.0049
825.853	-0.0036
826.0206	-0.0002
826.1881	0.0019
826.3557	-0.0094
826.5232	0.0018
826.6907	-0.0016
826.8582	0.008
827.0257	-0.0235
827.1931	0.0018
827.3605	0.0034
827.528	-0
827.6953	-0.0026
827.8627	0.001
828.03	-0.0134
828.1974	-0.0036
828.3647	0.003
828.532	-0.0071
828.6992	0.0003
828.8665	-0.0146
829.0337	-0.0143
829.2009	-0.0128
829.3681	-0.0246
829.5352	-0.0054
829.7024	0.0079
829.8695	-0.0239
830.0366	-0.0258
830.2037	-0.0004
830.3707	-0.0156
830.5378	-0.0173
830.7048	-0.0173
830.8718	-0.0173
831.0388	-0.012
831.2057	-0.0179
831.3727	-0.0174
831.5396	0.0018
831.7065	0.0053
831.8734	0.0063
832.0402	-0.0142
832.2071	0.0209
832.3739	0.0029
832.5407	0.0011
832.7075	0.0006
832.8742	0.0094
833.041	0.0055
833.2077	-0.0124
833.3744	-0.0122
833.541	0.0023
833.7077	-0.0089
833.8743	0.0009
834.0409	0.0078
834.2075	-0.0013
834.3741	-0.0052
834.5407	0.0232
834.7072	0.0024
834.8737	-0.0042
835.0402	-0.0238
835.2067	-0.0178
835.3731	-0.0166
835.5395	-0.0067
835.706	-0.0275
835.8723	-0.0288
836.0387	-0.0219
836.2051	-0.0042
836.3714	0.0162
836.5377	0.0231
836.704	-0.0113
836.8703	-0.0307
837.0365	0.0089
837.2027	-0.0053
837.3689	-0.0008
837.5351	0
837.7013	-0.0063
837.8674	-0.0033
838.0335	-0.0149
838.1997	0.0021
838.3657	0.0113
838.5318	0.0121
838.6978	-0.005
838.8639	0.0139
839.0299	0.0014
839.1958	0.0072
839.3618	0.005
839.5277	-0.0149
839.6937	-0.0008
839.8596	-0.015
840.0254	-0.0017
840.1913	0.0097
840.3571	-0.0081
840.523	0
840.6888	-0.0006
840.8545	-0.0153
841.0203	-0.0192
841.186	-0.0078
841.3517	0.0015
841.5174	-0.006
841.6831	-0.0037
841.8488	0.0019
842.0144	0.0364
842.18	0.0072
842.3456	0.0136
842.5112	-0.0058
842.6767	-0.0064
842.8422	0.0156
843.0077	-0.0023
843.1732	0.0138
843.3387	-0.0169
843.5042	0.0105
843.6696	0.0107
843.835	-0.0122
844.0004	-0.007
844.1657	0.0028
844.3311	0.0049
844.4964	-0.0041
844.6617	-0.0014
844.827	-0.0052
844.9923	0.0175
845.1575	-0.0015
845.3227	-0.0337
845.4879	-0.023
845.6531	0.0127
845.8183	-0.0241
845.9834	-0.0262
846.1485	0.0228
846.3136	-0.0453
846.4787	-0.0231
846.6438	0.0033
846.8088	0.0057
846.9738	0.0205
847.1388	0.0175
847.3038	0.0177
847.4687	0.0242
847.6337	0.0208
847.7986	0.0408
847.9635	-0.0256
848.1284	-0.0269
848.2932	0.0144
848.458	0.0263
848.6228	0.0204
848.7876	-0.03
848.9524	0.0078
849.1172	-0.0404
849.2819	0.0128
849.4466	0.0036
849.6113	0.0121
849.7759	0.0016
849.9406	0.012
850.1052	0.0472
850.2698	0.0068
850.4344	-0.0079
850.599	-0.06
850.7635	0.0324
850.928	-0.0156
851.0925	0.0359
851.257	-0.0264
851.4215	0.0159
851.5859	0.0389
851.7503	0.0443
851.9147	0.0368
852.0791	0.014
852.2434	-0.0233
852.4078	0.006
852.5721	-0.066
852.7364	-0.0695
852.9007	0.0616
853.0649	0.0118
853.2291	-0.009
853.3934	-0.0271
853.5575	-0.0149
853.7217	-0.0558
853.8859	-0.0043
854.05	-0.0023
854.2141	0.0058
854.3782	0.0079
854.5423	-0.0399
854.7063	-0.0096
854.8703	0.0239
855.0343	-0.0334
855.1983	0.029
855.3623	0.01
855.5262	0.0249
855.6901	-0.0225
855.854	-0.0251
856.0179	0.0342
856.1818	-0.0046
856.3456	-0.0533
856.5094	0.0021
856.6732	-0.0676
856.837	-0.0107
857.0008	0.0539
857.1645	-0.0045
857.3282	0.013
857.4919	-0.0124
857.6556	0.0865
857.8192	-0.0263
857.9828	0.0267
858.1465	0.021
858.31	-0.0221
858.4736	-0.0453
858.6372	0.0011
858.8007	-0.0331
858.9642	-0.1152
859.1277	0.0697
859.2911	0.0433
859.4546	0.0417
859.618	-0.0087
859.7814	0.0832
859.9448	-0.1232
860.1081	-0.0266
860.2715	0.1138
860.4348	0.0697
860.5981	-0.0082
860.7614	-0.131
860.9246	0.0142
861.0879	-0.0217
861.2511	-0.011
861.4143	-0.1498
861.5774	0.019
861.7406	-0.0091
861.9037	-0.1375
862.0668	-0.0368
862.2299	0.0274
862.393	-0.0657
862.556	0.0225
862.7191	-0.016
862.8821	-0.0425
863.0451	-0.0441
863.208	-0.1145
863.371	-0.0041
863.5339	-0.0834
863.6968	-0.0841
863.8597	-0.0091
864.0225	-0.1438
864.1854	-0
864.3482	-0.1429
864.511	-0.0263
864.6737	-0.0146
864.8365	0.0392
864.9992	-0.1531
865.1619	0.0176
865.3246	-0.0803
865.4873	0.0601
865.65	0.1091
865.8126	0.0485
865.9752	-0.1026
866.1378	-0.0755
866.3004	-0.0422
866.4629	-0.2021
866.6254	0.0856
866.7879	-0.1986
866.9504	0.1703
867.1129	0.1016
867.2753	0.1775
867.4377	-0.0501
867.6001	-0.1759
867.7625	0.0387
867.9249	-0.027
868.0872	-0.0406
868.2495	0.0291
868.4118	-0.0356
868.5741	-0.1491
868.7363	-0.0034
868.8986	-0.0816
869.0608	-0.0402
869.223	0.1785
869.3851	0.0517
869.5473	-0.1942
869.7094	0.0668
869.8715	-0.0996
870.0336	-0.1074
870.1957	-0.2384
870.3577	0.1519
870.5197	0.0433
870.6817	-0.178
870.8437	-0.0679
871.0057	1.3353
871.1676	-0.08
871.3295	-0.2836
871.4914	0.0268
871.6533	0.3003
871.8151	-0.206
871.977	0.2283
872.1388	-0.0968
872.3006	-0.0551
872.4623	0.0982
872.6241	-0.0811
872.7858	0.0901
872.9475	-0.2895
873.1092	0.0708
873.2709	-0.1521
873.4325	-0.3335
873.5941	-0.2216
873.7557	0.1046
873.9173	-0.1694
874.0789	0.2608
874.2404	0.0075
874.4019	-0.3458
874.5634	-0.0994
874.7249	-0.0851
874.8863	0.0361
875.0478	0.4365
875.2092	-0.1428
875.3706	0.3003
875.5319	-0.2966
875.6933	-0.2746
875.8546	-0.3642
876.0159	-0.0694
876.1772	-0.2023
876.3385	-0.3858
876.4997	-0.2705
876.6609	-0
876.8221	-0.1547
876.9833	-0.5124
877.1445	-0.2126
877.3056	-0.0883
877.4667	-0.6134
877.6278	0.1103
877.7889	0.087
877.9499	-0.7991
878.111	-0.017
878.272	0.1152
878.433	0.0451
878.5939	0.0336
878.7549	-0.3246
878.9158	-0.1673
879.0767	0.2389
879.2376	0.251
879.3984	-0.2668
879.5593	0.2582
879.7201	-0
879.8809	0.0998
880.0417	-0.1643
880.2024	0.4226
880.3632	-0.2444
880.5239	-0
880.6846	-0.4577
880.8452	0.4513
881.0059	0.733
881.1665	-0
881.3271	-0.2604
881.4877	-0.0829
881.6483	-0.3047
881.8088	-0.2757
881.9693	-0.0289
882.1298	-0.0289
882.2903	-0.0289
