Data from MonoPyChalIsomerACN10uM450nmA_Absorbance_13-11-14-692.txt Node
Date: Tue Jul 09 13:11:14 BST 2024
User: LASERRRRR
Spectrometer: FLMT03099
Trigger mode: 0
Integration Time (sec): 2.000000E-1
Scans to average: 1
Electric dark correction enabled: true
Nonlinearity correction enabled: false
Boxcar width: 0
XAxis mode: Wavelengths
Number of Pixels in Spectrum: 3648
>>>>>Begin Spectral Data<<<<<
179.3399	-0
179.5586	-0
179.7771	-0
179.9957	0.7072
180.2143	0.6852
180.4329	1.4401
180.6514	-0.0153
180.8699	-0
181.0885	-0
181.307	-0
181.5255	-0
181.744	-0
181.9625	0.7273
182.181	-0
182.3994	-0.0036
182.6179	-0.0734
182.8363	-0
183.0547	0.237
183.2732	0.1295
183.4916	0.1172
183.71	0.017
183.9284	0.1393
184.1467	0.0958
184.3651	0.0342
184.5835	0.107
184.8018	-0.0133
185.0201	0.1367
185.2385	0.0681
185.4568	-0.0742
185.6751	0.1242
185.8934	-0.0061
186.1117	0.0522
186.3299	-0.1586
186.5482	0.0147
186.7664	0.1185
186.9847	0.0664
187.2029	0.1085
187.4211	0.0933
187.6393	0.0372
187.8575	0.135
188.0757	0.1722
188.2939	0.0712
188.512	0.1477
188.7302	0.1206
188.9483	0.2293
189.1665	0.2453
189.3846	0.1212
189.6027	0.1391
189.8208	0.0416
190.0389	0.1728
190.257	0.2238
190.475	0.2968
190.6931	0.1267
190.9111	0.2937
191.1292	0.4313
191.3472	0.3529
191.5652	0.4031
191.7832	0.4262
192.0012	0.2678
192.2192	0.4653
192.4371	0.5147
192.6551	0.516
192.873	0.4861
193.091	0.5586
193.3089	0.5888
193.5268	0.5944
193.7447	0.5478
193.9626	0.5214
194.1805	0.555
194.3984	0.7261
194.6162	0.6526
194.8341	0.5936
195.0519	0.5964
195.2697	0.6515
195.4875	0.6747
195.7054	0.627
195.9231	0.8079
196.1409	0.6272
196.3587	0.7427
196.5765	0.6332
196.7942	0.7806
197.012	0.6932
197.2297	0.7258
197.4474	0.7829
197.6651	0.6912
197.8828	0.9303
198.1005	0.9041
198.3182	0.8161
198.5358	0.7735
198.7535	0.748
198.9711	0.8805
199.1888	0.784
199.4064	0.8085
199.624	0.7706
199.8416	0.8531
200.0592	0.7725
200.2767	0.7456
200.4943	0.7856
200.7119	0.8685
200.9294	0.8469
201.1469	0.8725
201.3645	1.0066
201.582	1.0686
201.7995	0.8091
202.017	0.869
202.2344	0.8951
202.4519	0.8961
202.6694	0.8562
202.8868	0.9212
203.1042	1.0185
203.3217	0.9977
203.5391	0.9941
203.7565	0.9128
203.9739	0.9454
204.1913	0.8
204.4086	0.99
204.626	1.1535
204.8433	0.8933
205.0607	0.9196
205.278	0.8828
205.4953	1.266
205.7126	1.0267
205.9299	1.0016
206.1472	1.1123
206.3644	0.9885
206.5817	1.034
206.7989	1.0661
207.0162	1.1557
207.2334	0.9588
207.4506	1.0381
207.6678	1.0835
207.885	1.182
208.1022	1.1162
208.3194	1.1564
208.5365	1.0317
208.7537	1.0489
208.9708	0.9966
209.1879	1.1021
209.405	0.9654
209.6222	1.1154
209.8392	1.0427
210.0563	1.0838
210.2734	1.1427
210.4905	1.1332
210.7075	1.0766
210.9245	1.0391
211.1416	1.1219
211.3586	1.1514
211.5756	1.1034
211.7926	1.1251
212.0096	1.0035
212.2265	1.0401
212.4435	1.094
212.6604	1.0218
212.8774	1
213.0943	1.0379
213.3112	1.0061
213.5281	1.0746
213.745	0.9935
213.9619	0.9277
214.1788	0.9637
214.3956	1.0057
214.6125	0.9569
214.8293	0.8851
215.0461	0.8563
215.2629	0.8932
215.4798	0.8642
215.6965	0.8254
215.9133	0.839
216.1301	0.8135
216.3469	0.8323
216.5636	0.8206
216.7803	0.8247
216.9971	0.7811
217.2138	0.7534
217.4305	0.7245
217.6472	0.6845
217.8639	0.65
218.0805	0.6295
218.2972	0.5777
218.5138	0.5355
218.7305	0.5148
218.9471	0.4693
219.1637	0.4494
219.3803	0.4429
219.5969	0.4029
219.8135	0.3767
220.0301	0.3628
220.2466	0.37
220.4632	0.3581
220.6797	0.3316
220.8962	0.3247
221.1127	0.3023
221.3292	0.3056
221.5457	0.2962
221.7622	0.294
221.9787	0.2844
222.1951	0.2832
222.4116	0.2769
222.628	0.2763
222.8444	0.2754
223.0608	0.2732
223.2772	0.2795
223.4936	0.2764
223.71	0.2821
223.9264	0.2858
224.1427	0.2852
224.3591	0.2872
224.5754	0.2896
224.7917	0.2837
225.008	0.2781
225.2243	0.2813
225.4406	0.2864
225.6569	0.284
225.8732	0.2931
226.0894	0.2734
226.3057	0.2958
226.5219	0.2895
226.7381	0.2971
226.9543	0.2818
227.1705	0.2999
227.3867	0.3058
227.6029	0.2984
227.8191	0.3028
228.0352	0.3026
228.2513	0.3073
228.4675	0.3171
228.6836	0.3213
228.8997	0.3137
229.1158	0.327
229.3319	0.3206
229.548	0.3341
229.764	0.3211
229.9801	0.3328
230.1961	0.335
230.4121	0.3304
230.6282	0.3466
230.8442	0.3347
231.0602	0.3436
231.2761	0.3474
231.4921	0.3508
231.7081	0.3691
231.924	0.3572
232.14	0.3546
232.3559	0.3598
232.5718	0.3661
232.7877	0.3655
233.0036	0.3757
233.2195	0.3659
233.4353	0.3818
233.6512	0.3759
233.867	0.3671
234.0829	0.3866
234.2987	0.3727
234.5145	0.3907
234.7303	0.4019
234.9461	0.4021
235.1619	0.3851
235.3776	0.3831
235.5934	0.4002
235.8091	0.4027
236.0249	0.3994
236.2406	0.4004
236.4563	0.4
236.672	0.4041
236.8877	0.4029
237.1034	0.4072
237.319	0.42
237.5347	0.4111
237.7503	0.4091
237.966	0.41
238.1816	0.4202
238.3972	0.4188
238.6128	0.4197
238.8284	0.4176
239.0439	0.4127
239.2595	0.4303
239.475	0.427
239.6906	0.4241
239.9061	0.4307
240.1216	0.4164
240.3371	0.4219
240.5526	0.4265
240.7681	0.4126
240.9836	0.4136
241.199	0.4075
241.4145	0.4075
241.6299	0.4075
241.8453	0.4024
242.0607	0.394
242.2761	0.3947
242.4915	0.3819
242.7069	0.3845
242.9223	0.3695
243.1376	0.3654
243.353	0.3454
243.5683	0.3563
243.7836	0.3415
243.9989	0.3374
244.2142	0.3248
244.4295	0.3309
244.6448	0.3103
244.86	0.3261
245.0753	0.3031
245.2905	0.2975
245.5057	0.3002
245.721	0.2896
245.9362	0.279
246.1514	0.2784
246.3665	0.2756
246.5817	0.2621
246.7969	0.2749
247.012	0.2654
247.2271	0.2573
247.4423	0.2624
247.6574	0.2603
247.8725	0.2487
248.0876	0.2558
248.3026	0.2422
248.5177	0.2422
248.7328	0.2372
248.9478	0.2398
249.1628	0.235
249.3779	0.2277
249.5929	0.2269
249.8079	0.229
250.0228	0.2309
250.2378	0.2225
250.4528	0.2168
250.6677	0.2143
250.8827	0.2074
251.0976	0.2175
251.3125	0.2203
251.5274	0.2088
251.7423	0.2104
251.9572	0.207
252.172	0.2066
252.3869	0.21
252.6017	0.2069
252.8166	0.2074
253.0314	0.2023
253.2462	0.2083
253.461	0.2006
253.6758	0.1993
253.8906	0.2023
254.1053	0.2014
254.3201	0.2093
254.5348	0.1996
254.7496	0.2023
254.9643	0.1983
255.179	0.2011
255.3937	0.2041
255.6083	0.2051
255.823	0.2
256.0377	0.188
256.2523	0.1962
256.467	0.2045
256.6816	0.1927
256.8962	0.1908
257.1108	0.197
257.3254	0.1899
257.54	0.1923
257.7545	0.1946
257.9691	0.2046
258.1836	0.1919
258.3981	0.193
258.6127	0.1996
258.8272	0.2024
259.0417	0.1969
259.2561	0.1968
259.4706	0.1916
259.6851	0.1943
259.8995	0.1912
260.114	0.1893
260.3284	0.1986
260.5428	0.1909
260.7572	0.203
260.9716	0.1921
261.186	0.194
261.4003	0.2048
261.6147	0.2022
261.829	0.2083
262.0433	0.1958
262.2577	0.2018
262.472	0.1991
262.6863	0.1849
262.9005	0.1927
263.1148	0.1897
263.3291	0.1851
263.5433	0.1891
263.7576	0.1879
263.9718	0.1897
264.186	0.1877
264.4002	0.1951
264.6144	0.1833
264.8286	0.176
265.0427	0.1795
265.2569	0.179
265.471	0.1802
265.6851	0.1696
265.8993	0.1735
266.1134	0.1739
266.3275	0.1803
266.5415	0.1692
266.7556	0.1835
266.9697	0.1793
267.1837	0.1672
267.3978	0.1908
267.6118	0.1882
267.8258	0.1925
268.0398	0.1946
268.2538	0.1921
268.4677	0.1989
268.6817	0.1882
268.8957	0.1826
269.1096	0.1801
269.3235	0.1877
269.5374	0.1758
269.7514	0.1608
269.9652	0.1606
270.1791	0.15
270.393	0.1589
270.6068	0.1396
270.8207	0.1486
271.0345	0.1541
271.2483	0.1514
271.4622	0.1471
271.676	0.1391
271.8897	0.1395
272.1035	0.132
272.3173	0.1437
272.531	0.1383
272.7448	0.1473
272.9585	0.1339
273.1722	0.1378
273.3859	0.1318
273.5996	0.1319
273.8133	0.1415
274.0269	0.1391
274.2406	0.1325
274.4542	0.1326
274.6679	0.1304
274.8815	0.1398
275.0951	0.1298
275.3087	0.1289
275.5223	0.14
275.7358	0.1323
275.9494	0.1445
276.1629	0.1383
276.3765	0.1372
276.59	0.1373
276.8035	0.137
277.017	0.1306
277.2305	0.1371
277.444	0.1314
277.6574	0.1343
277.8709	0.1415
278.0843	0.1435
278.2978	0.1327
278.5112	0.137
278.7246	0.1379
278.938	0.1394
279.1513	0.1419
279.3647	0.1457
279.5781	0.133
279.7914	0.144
280.0047	0.146
280.2181	0.1431
280.4314	0.146
280.6447	0.1404
280.8579	0.1458
281.0712	0.1428
281.2845	0.1386
281.4977	0.1487
281.711	0.1475
281.9242	0.1482
282.1374	0.1466
282.3506	0.138
282.5638	0.1452
282.7769	0.1548
282.9901	0.1399
283.2033	0.1531
283.4164	0.1549
283.6295	0.1456
283.8426	0.1542
284.0557	0.141
284.2688	0.1545
284.4819	0.1454
284.695	0.1579
284.908	0.1567
285.1211	0.1514
285.3341	0.1516
285.5471	0.1535
285.7601	0.1557
285.9731	0.1628
286.1861	0.1664
286.3991	0.1567
286.612	0.1563
286.825	0.1611
287.0379	0.1622
287.2508	0.1602
287.4637	0.1618
287.6766	0.1524
287.8895	0.1616
288.1024	0.1644
288.3152	0.1596
288.5281	0.1519
288.7409	0.1591
288.9538	0.1728
289.1666	0.1736
289.3794	0.1591
289.5922	0.1652
289.8049	0.1621
290.0177	0.1686
290.2304	0.1564
290.4432	0.1662
290.6559	0.1666
290.8686	0.1647
291.0813	0.1716
291.294	0.1726
291.5067	0.1665
291.7194	0.1668
291.932	0.171
292.1447	0.1707
292.3573	0.1636
292.5699	0.1733
292.7825	0.1666
292.9951	0.1698
293.2077	0.1543
293.4203	0.1639
293.6328	0.1768
293.8454	0.1657
294.0579	0.1645
294.2704	0.1688
294.4829	0.1764
294.6954	0.1695
294.9079	0.1741
295.1204	0.1699
295.3328	0.1647
295.5453	0.1624
295.7577	0.1682
295.9701	0.1668
296.1825	0.1665
296.3949	0.1637
296.6073	0.1677
296.8197	0.1644
297.0321	0.1741
297.2444	0.1623
297.4567	0.1559
297.6691	0.1688
297.8814	0.1672
298.0937	0.1617
298.306	0.1664
298.5182	0.1592
298.7305	0.1696
298.9428	0.1683
299.155	0.1613
299.3672	0.1676
299.5794	0.1683
299.7916	0.1652
300.0038	0.1654
300.216	0.1765
300.4282	0.1653
300.6403	0.1605
300.8525	0.1664
301.0646	0.1612
301.2767	0.1606
301.4888	0.1621
301.7009	0.1698
301.913	0.1678
302.125	0.1676
302.3371	0.1692
302.5491	0.1623
302.7612	0.1659
302.9732	0.1702
303.1852	0.1599
303.3972	0.1674
303.6092	0.1629
303.8211	0.1627
304.0331	0.1559
304.245	0.1608
304.457	0.1617
304.6689	0.1675
304.8808	0.1556
305.0927	0.1564
305.3046	0.1523
305.5164	0.15
305.7283	0.155
305.9401	0.1577
306.152	0.1539
306.3638	0.1562
306.5756	0.1419
306.7874	0.147
306.9992	0.1464
307.2109	0.1426
307.4227	0.1444
307.6344	0.1391
307.8462	0.1451
308.0579	0.142
308.2696	0.1275
308.4813	0.1338
308.693	0.1285
308.9046	0.1214
309.1163	0.1213
309.328	0.1264
309.5396	0.1256
309.7512	0.1248
309.9628	0.1186
310.1744	0.1285
310.386	0.1131
310.5976	0.1194
310.8091	0.118
311.0207	0.1207
311.2322	0.1142
311.4437	0.12
311.6552	0.1137
311.8667	0.1122
312.0782	0.109
312.2897	0.1054
312.5012	0.1169
312.7126	0.0933
312.924	0.1052
313.1355	0.105
313.3469	0.1042
313.5583	0.1011
313.7696	0.1014
313.981	0.102
314.1924	0.0914
314.4037	0.1043
314.6151	0.0889
314.8264	0.0996
315.0377	0.0941
315.249	0.1
315.4603	0.1008
315.6716	0.0922
315.8828	0.0973
316.0941	0.0896
316.3053	0.0886
316.5165	0.0964
316.7277	0.0881
316.9389	0.0939
317.1501	0.0918
317.3613	0.0942
317.5724	0.0919
317.7836	0.0873
317.9947	0.0885
318.2058	0.0867
318.417	0.0858
318.6281	0.0899
318.8391	0.0854
319.0502	0.0794
319.2613	0.0921
319.4723	0.0907
319.6834	0.0927
319.8944	0.0979
320.1054	0.0865
320.3164	0.0894
320.5274	0.0895
320.7383	0.09
320.9493	0.0862
321.1602	0.0917
321.3712	0.0966
321.5821	0.0921
321.793	0.0849
322.0039	0.092
322.2148	0.0927
322.4257	0.0881
322.6365	0.0844
322.8474	0.0922
323.0582	0.1029
323.269	0.0965
323.4798	0.0944
323.6906	0.0917
323.9014	0.0893
324.1122	0.0901
324.3229	0.0972
324.5337	0.0891
324.7444	0.0979
324.9551	0.099
325.1658	0.0968
325.3765	0.0913
325.5872	0.0889
325.7979	0.0968
326.0085	0.1062
326.2192	0.0939
326.4298	0.1061
326.6404	0.0909
326.851	0.0952
327.0616	0.0942
327.2722	0.0929
327.4828	0.0928
327.6933	0.0991
327.9039	0.0915
328.1144	0.0979
328.3249	0.0988
328.5354	0.0947
328.7459	0.0956
328.9564	0.0968
329.1669	0.0948
329.3773	0.0936
329.5878	0.1031
329.7982	0.0934
330.0086	0.1022
330.219	0.1042
330.4294	0.0931
330.6398	0.1016
330.8502	0.1078
331.0605	0.1064
331.2708	0.0954
331.4812	0.1013
331.6915	0.0932
331.9018	0.0915
332.1121	0.1013
332.3224	0.1049
332.5326	0.0951
332.7429	0.1042
332.9531	0.0966
333.1633	0.1088
333.3735	0.0963
333.5837	0.0976
333.7939	0.1049
334.0041	0.0968
334.2143	0.0883
334.4244	0.0914
334.6346	0.093
334.8447	0.1032
335.0548	0.1011
335.2649	0.0969
335.475	0.0913
335.685	0.1002
335.8951	0.0975
336.1051	0.0999
336.3152	0.104
336.5252	0.1002
336.7352	0.1022
336.9452	0.0978
337.1552	0.1014
337.3652	0.1072
337.5751	0.1112
337.7851	0.0918
337.995	0.101
338.2049	0.098
338.4148	0.1039
338.6247	0.1047
338.8346	0.109
339.0445	0.1036
339.2543	0.1072
339.4642	0.1056
339.674	0.1092
339.8838	0.1019
340.0936	0.1067
340.3034	0.1118
340.5132	0.1072
340.7229	0.1093
340.9327	0.1125
341.1424	0.1085
341.3522	0.1082
341.5619	0.116
341.7716	0.1203
341.9813	0.1105
342.1909	0.1206
342.4006	0.1171
342.6102	0.1119
342.8199	0.1163
343.0295	0.106
343.2391	0.1193
343.4487	0.1085
343.6583	0.1179
343.8679	0.1128
344.0774	0.1266
344.287	0.1173
344.4965	0.1151
344.706	0.119
344.9155	0.1346
345.125	0.1257
345.3345	0.1199
345.544	0.1171
345.7534	0.1241
345.9629	0.1302
346.1723	0.1245
346.3817	0.1291
346.5911	0.1331
346.8005	0.1179
347.0099	0.1176
347.2193	0.126
347.4286	0.1331
347.638	0.135
347.8473	0.1323
348.0566	0.1332
348.2659	0.1223
348.4752	0.1265
348.6845	0.1314
348.8937	0.1336
349.103	0.1267
349.3122	0.1279
349.5214	0.1292
349.7306	0.1257
349.9398	0.1216
350.149	0.1306
350.3582	0.1328
350.5674	0.1351
350.7765	0.1363
350.9856	0.1378
351.1948	0.1339
351.4039	0.1324
351.613	0.1293
351.822	0.1385
352.0311	0.1384
352.2402	0.1419
352.4492	0.1344
352.6582	0.1472
352.8672	0.1371
353.0762	0.1471
353.2852	0.146
353.4942	0.1394
353.7032	0.1488
353.9121	0.1511
354.1211	0.1446
354.33	0.1434
354.5389	0.1464
354.7478	0.1442
354.9567	0.1533
355.1655	0.1513
355.3744	0.1532
355.5833	0.1495
355.7921	0.1499
356.0009	0.1521
356.2097	0.1568
356.4185	0.1508
356.6273	0.1606
356.8361	0.1545
357.0448	0.1597
357.2536	0.1517
357.4623	0.154
357.671	0.1649
357.8797	0.1657
358.0884	0.1603
358.2971	0.1664
358.5057	0.1634
358.7144	0.1702
358.923	0.1783
359.1316	0.1722
359.3402	0.179
359.5488	0.1636
359.7574	0.1722
359.966	0.1756
360.1746	0.1741
360.3831	0.1747
360.5916	0.1843
360.8002	0.1806
361.0087	0.1783
361.2172	0.1695
361.4256	0.18
361.6341	0.1764
361.8426	0.196
362.051	0.1747
362.2594	0.1823
362.4678	0.1863
362.6762	0.1888
362.8846	0.1952
363.093	0.1819
363.3014	0.1883
363.5097	0.1871
363.718	0.1987
363.9264	0.1791
364.1347	0.2027
364.343	0.1849
364.5513	0.1961
364.7595	0.1973
364.9678	0.1924
365.176	0.1998
365.3842	0.1831
365.5925	0.2008
365.8007	0.203
366.0089	0.2111
366.217	0.2033
366.4252	0.222
366.6333	0.2027
366.8415	0.2002
367.0496	0.2105
367.2577	0.2103
367.4658	0.2164
367.6739	0.198
367.882	0.2088
368.09	0.2045
368.2981	0.22
368.5061	0.2183
368.7141	0.2145
368.9221	0.2076
369.1301	0.2147
369.3381	0.2158
369.5461	0.2181
369.754	0.2147
369.962	0.2168
370.1699	0.2211
370.3778	0.22
370.5857	0.228
370.7936	0.2226
371.0015	0.2276
371.2093	0.2216
371.4172	0.2393
371.625	0.2191
371.8328	0.2183
372.0406	0.2339
372.2484	0.2233
372.4562	0.2248
372.664	0.2273
372.8717	0.229
373.0795	0.2299
373.2872	0.2357
373.4949	0.2209
373.7026	0.2394
373.9103	0.2323
374.118	0.2442
374.3256	0.2467
374.5333	0.2322
374.7409	0.2408
374.9485	0.2389
375.1561	0.2435
375.3637	0.2236
375.5713	0.2419
375.7789	0.2282
375.9864	0.2457
376.194	0.2399
376.4015	0.2511
376.609	0.2571
376.8165	0.2412
377.024	0.2398
377.2315	0.2441
377.4389	0.2435
377.6464	0.2446
377.8538	0.2478
378.0612	0.2584
378.2686	0.2483
378.476	0.2432
378.6834	0.2598
378.8908	0.2594
379.0981	0.2633
379.3055	0.2528
379.5128	0.2543
379.7201	0.2516
379.9274	0.2576
380.1347	0.2692
380.342	0.2571
380.5492	0.2572
380.7565	0.2636
380.9637	0.2763
381.1709	0.2541
381.3781	0.2635
381.5853	0.2654
381.7925	0.2648
381.9997	0.2681
382.2068	0.264
382.4139	0.262
382.6211	0.2668
382.8282	0.2671
383.0353	0.2599
383.2424	0.2641
383.4494	0.2752
383.6565	0.2667
383.8635	0.2828
384.0706	0.2712
384.2776	0.2776
384.4846	0.2736
384.6916	0.2741
384.8986	0.2748
385.1055	0.2735
385.3125	0.286
385.5194	0.2728
385.7263	0.2823
385.9333	0.2759
386.1402	0.2771
386.347	0.2766
386.5539	0.2742
386.7608	0.2731
386.9676	0.2916
387.1744	0.2716
387.3813	0.2711
387.5881	0.2796
387.7948	0.2676
388.0016	0.2756
388.2084	0.2803
388.4151	0.2643
388.6219	0.2638
388.8286	0.2771
389.0353	0.2552
389.242	0.2647
389.4487	0.2707
389.6553	0.2714
389.862	0.258
390.0686	0.2498
390.2753	0.2575
390.4819	0.2709
390.6885	0.2644
390.8951	0.2532
391.1016	0.2627
391.3082	0.2537
391.5147	0.2573
391.7213	0.2581
391.9278	0.2421
392.1343	0.2588
392.3408	0.2455
392.5473	0.2533
392.7537	0.2578
392.9602	0.2387
393.1666	0.244
393.373	0.2458
393.5794	0.2471
393.7858	0.2401
393.9922	0.2403
394.1986	0.232
394.4049	0.2592
394.6113	0.2486
394.8176	0.2368
395.0239	0.2389
395.2302	0.2384
395.4365	0.2364
395.6428	0.2304
395.8491	0.2299
396.0553	0.2277
396.2615	0.2341
396.4678	0.2344
396.674	0.2312
396.8802	0.2364
397.0863	0.2307
397.2925	0.2301
397.4987	0.228
397.7048	0.2276
397.9109	0.2323
398.117	0.2287
398.3231	0.2433
398.5292	0.2239
398.7353	0.2304
398.9413	0.2336
399.1474	0.2261
399.3534	0.223
399.5594	0.2323
399.7654	0.2272
399.9714	0.2281
400.1774	0.2201
400.3833	0.2288
400.5893	0.2285
400.7952	0.2237
401.0011	0.2275
401.207	0.2288
401.4129	0.2164
401.6188	0.2122
401.8247	0.2253
402.0305	0.2227
402.2364	0.2313
402.4422	0.2301
402.648	0.2342
402.8538	0.2231
403.0596	0.2236
403.2654	0.2161
403.4711	0.2117
403.6768	0.2417
403.8826	0.2303
404.0883	0.2259
404.294	0.2258
404.4997	0.2215
404.7054	0.2258
404.911	0.2301
405.1167	0.2296
405.3223	0.2388
405.5279	0.2203
405.7335	0.2304
405.9391	0.2288
406.1447	0.2121
406.3502	0.2302
406.5558	0.2288
406.7613	0.2186
406.9668	0.2297
407.1724	0.2279
407.3778	0.2498
407.5833	0.2324
407.7888	0.242
407.9942	0.2281
408.1997	0.2353
408.4051	0.2208
408.6105	0.2309
408.8159	0.2448
409.0213	0.2274
409.2267	0.2314
409.432	0.2294
409.6374	0.2388
409.8427	0.2345
410.048	0.2209
410.2533	0.2341
410.4586	0.2413
410.6639	0.223
410.8691	0.2285
411.0744	0.2236
411.2796	0.2248
411.4848	0.2209
411.69	0.225
411.8952	0.2264
412.1004	0.2171
412.3056	0.2289
412.5107	0.2333
412.7158	0.2271
412.921	0.2186
413.1261	0.2126
413.3312	0.2306
413.5362	0.2276
413.7413	0.2152
413.9464	0.219
414.1514	0.2162
414.3564	0.2313
414.5614	0.2272
414.7664	0.2255
414.9714	0.2113
415.1764	0.2296
415.3813	0.2236
415.5863	0.2235
415.7912	0.2227
415.9961	0.2204
416.201	0.2317
416.4059	0.2154
416.6108	0.2172
416.8156	0.2182
417.0205	0.2314
417.2253	0.2225
417.4301	0.214
417.6349	0.2146
417.8397	0.2184
418.0445	0.2091
418.2492	0.2264
418.454	0.2143
418.6587	0.2188
418.8634	0.2217
419.0681	0.2109
419.2728	0.2153
419.4775	0.204
419.6822	0.2133
419.8868	0.2088
420.0915	0.2183
420.2961	0.2091
420.5007	0.2119
420.7053	0.2047
420.9099	0.1987
421.1144	0.2052
421.319	0.1942
421.5235	0.2121
421.728	0.204
421.9325	0.2011
422.137	0.1936
422.3415	0.2169
422.546	0.2016
422.7504	0.2045
422.9549	0.2015
423.1593	0.191
423.3637	0.208
423.5681	0.2092
423.7725	0.1999
423.9769	0.1916
424.1812	0.2022
424.3856	0.1918
424.5899	0.2008
424.7942	0.1956
424.9985	0.1975
425.2028	0.1826
425.4071	0.1857
425.6113	0.1896
425.8156	0.188
426.0198	0.1842
426.224	0.1704
426.4282	0.1738
426.6324	0.1876
426.8366	0.1843
427.0407	0.1751
427.2449	0.1823
427.449	0.1759
427.6531	0.1812
427.8572	0.167
428.0613	0.1684
428.2654	0.1721
428.4694	0.1842
428.6735	0.1781
428.8775	0.1704
429.0815	0.1739
429.2855	0.1632
429.4895	0.1583
429.6935	0.1566
429.8975	0.1654
430.1014	0.1733
430.3053	0.1563
430.5093	0.1617
430.7132	0.1591
430.9171	0.1532
431.1209	0.1566
431.3248	0.1546
431.5286	0.1515
431.7325	0.1471
431.9363	0.1459
432.1401	0.1413
432.3439	0.1366
432.5477	0.1459
432.7514	0.1481
432.9552	0.1348
433.1589	0.1308
433.3627	0.1409
433.5664	0.1344
433.7701	0.1205
433.9737	0.1201
434.1774	0.134
434.3811	0.1163
434.5847	0.1357
434.7883	0.1284
434.9919	0.118
435.1955	0.111
435.3991	0.1182
435.6027	0.1175
435.8062	0.1173
436.0098	0.1154
436.2133	0.1136
436.4168	0.1123
436.6203	0.1136
436.8238	0.1036
437.0272	0.1053
437.2307	0.1074
437.4341	0.1033
437.6375	0.104
437.841	0.1023
438.0443	0.1018
438.2477	0.0989
438.4511	0.0949
438.6545	0.0913
438.8578	0.0903
439.0611	0.0876
439.2644	0.1082
439.4677	0.0947
439.671	0.0923
439.8743	0.0985
440.0775	0.0844
440.2808	0.077
440.484	0.0878
440.6872	0.0689
440.8904	0.078
441.0936	0.0749
441.2967	0.0738
441.4999	0.0726
441.703	0.0631
441.9062	0.0764
442.1093	0.0709
442.3124	0.0674
442.5155	0.0701
442.7185	0.057
442.9216	0.0646
443.1246	0.0667
443.3276	0.0676
443.5307	0.0565
443.7337	0.0654
443.9366	0.064
444.1396	0.0568
444.3426	0.0587
444.5455	0.0513
444.7484	0.0461
444.9513	0.0589
445.1542	0.0556
445.3571	0.049
445.56	0.0461
445.7628	0.0345
445.9657	0.0536
446.1685	0.0479
446.3713	0.0531
446.5741	0.0513
446.7769	0.0448
446.9797	0.0505
447.1824	0.0413
447.3852	0.0496
447.5879	0.043
447.7906	0.0411
447.9933	0.0318
448.196	0.0446
448.3986	0.036
448.6013	0.0338
448.8039	0.0336
449.0066	0.0309
449.2092	0.0224
449.4118	0.0323
449.6143	0.0314
449.8169	0.0273
450.0195	0.0183
450.222	0.0157
450.4245	0.0251
450.627	0.0318
450.8295	0.0221
451.032	0.03
451.2345	0.0181
451.4369	0.031
451.6394	0.0188
451.8418	0.0257
452.0442	0.0175
452.2466	0.0221
452.449	0.0228
452.6513	0.0254
452.8537	0.0312
453.056	0.017
453.2583	0.0186
453.4607	0.0291
453.663	0.0194
453.8652	0.0137
454.0675	0.0204
454.2697	0.0147
454.472	0.0177
454.6742	0.0174
454.8764	0.0229
455.0786	0.0257
455.2808	0.0131
455.4829	0.013
455.6851	0.0059
455.8872	0.0111
456.0893	0.0084
456.2915	0.0039
456.4935	0.0137
456.6956	0.0138
456.8977	-0.0003
457.0997	0.0047
457.3018	0.0139
457.5038	0.0053
457.7058	0.0061
457.9078	0.0089
458.1098	0.006
458.3117	0.0107
458.5137	0.0174
458.7156	0.0113
458.9175	0.0018
459.1194	0.0164
459.3213	0.0095
459.5232	0.0025
459.725	0.0058
459.9269	0.005
460.1287	0.0116
460.3305	0.0056
460.5323	0.0044
460.7341	0.0098
460.9359	0.0014
461.1376	-0.002
461.3394	0.0007
461.5411	0.0122
461.7428	-0.0069
461.9445	0.0075
462.1462	0.0064
462.3479	-0.0017
462.5495	0.0083
462.7512	0.0085
462.9528	0.0025
463.1544	0.0063
463.356	0.0046
463.5576	0.0048
463.7592	-0.0001
463.9607	0.0047
464.1623	-0.0039
464.3638	0.01
464.5653	0.0121
464.7668	-0.0067
464.9683	0.0046
465.1697	0.001
465.3712	0.0052
465.5726	-0.0026
465.7741	-0.0028
465.9755	0.0023
466.1769	-0.0158
466.3782	0.0098
466.5796	0.0014
466.7809	-0.0029
466.9823	-0.0084
467.1836	0.0051
467.3849	0.0104
467.5862	0.0016
467.7875	-0.0082
467.9887	-0.0018
468.19	-0.0058
468.3912	0.007
468.5924	-0.0031
468.7936	-0.0016
468.9948	0.0041
469.196	-0.007
469.3972	0.007
469.5983	0.0124
469.7994	-0.0014
470.0006	-0.0045
470.2017	0.0043
470.4027	-0.0025
470.6038	0.002
470.8049	-0.0094
471.0059	-0.0067
471.2069	0.0099
471.408	-0.0041
471.6089	-0.0149
471.8099	-0.004
472.0109	-0.0137
472.2119	-0.0123
472.4128	0.0043
472.6137	-0.0082
472.8146	-0.0089
473.0155	-0.0052
473.2164	-0.0127
473.4173	-0.0049
473.6181	0.0042
473.819	0.0015
474.0198	-0.0006
474.2206	-0.0018
474.4214	-0.0024
474.6222	-0.0022
474.8229	-0.0087
475.0237	-0.0037
475.2244	-0.0071
475.4251	-0.0046
475.6258	0.0091
475.8265	-0.0018
476.0272	-0.0064
476.2278	-0.0031
476.4285	-0.0054
476.6291	-0.0027
476.8297	-0.0071
477.0303	-0.0016
477.2309	0.0017
477.4315	0.0087
477.632	-0.0128
477.8326	0.0014
478.0331	-0.0077
478.2336	0.0028
478.4341	-0.0087
478.6346	-0.0065
478.8351	-0.0148
479.0355	-0.0043
479.236	-0.0081
479.4364	-0.0014
479.6368	0.0004
479.8372	0.0005
480.0376	-0.0064
480.2379	-0.0001
480.4383	-0.0038
480.6386	-0.0089
480.8389	-0.016
481.0392	-0.0114
481.2395	-0.0136
481.4398	-0.0018
481.6401	-0.0105
481.8403	-0.0064
482.0405	-0.0121
482.2408	0.0086
482.441	-0.003
482.6411	0.002
482.8413	-0.0052
483.0415	-0.0039
483.2416	-0.0005
483.4417	-0.002
483.6419	0.0032
483.8419	-0.0009
484.042	-0.0088
484.2421	-0.0029
484.4422	-0.0021
484.6422	-0.0068
484.8422	-0.0033
485.0422	-0.0105
485.2422	-0.0025
485.4422	-0.0033
485.6422	-0.0032
485.8421	0.0009
486.042	-0.0012
486.242	-0.0051
486.4419	-0.0053
486.6417	-0.0008
486.8416	0.0031
487.0415	-0.0056
487.2413	-0.0018
487.4411	-0.0048
487.641	-0.0047
487.8408	-0.0056
488.0405	-0.0097
488.2403	-0.0034
488.4401	-0.0053
488.6398	-0.011
488.8395	-0.0032
489.0392	-0.0018
489.2389	-0.0088
489.4386	-0.012
489.6383	-0.0076
489.8379	-0.0061
490.0376	-0.0067
490.2372	-0.006
490.4368	-0.0041
490.6364	-0.0065
490.836	-0.0101
491.0355	-0.0018
491.2351	-0.008
491.4346	-0.0146
491.6341	-0.0094
491.8336	-0.0041
492.0331	-0.0095
492.2326	-0.0095
492.432	0.0018
492.6315	-0.0028
492.8309	-0.0079
493.0303	-0.0068
493.2297	-0.0005
493.4291	-0.0062
493.6284	-0.0021
493.8278	-0.0059
494.0271	0.0012
494.2264	-0.0071
494.4257	-0.0002
494.625	-0.0081
494.8243	-0.0001
495.0236	-0.0145
495.2228	-0.0052
495.422	-0.0073
495.6213	-0.0089
495.8205	0.0035
496.0196	-0.0074
496.2188	-0.0017
496.418	-0.0094
496.6171	-0.0046
496.8162	-0.0016
497.0153	-0.0041
497.2144	-0.0041
497.4135	0.0006
497.6126	0.0003
497.8116	0.0007
498.0107	0.0006
498.2097	-0.0045
498.4087	-0.0065
498.6077	-0.0078
498.8067	-0.0114
499.0056	-0.0034
499.2046	-0.0051
499.4035	-0.0094
499.6024	-0.0013
499.8013	0.0005
500.0002	-0.0046
500.199	-0.0039
500.3979	-0.0031
500.5967	-0.011
500.7956	-0.0066
500.9944	-0.0089
501.1932	-0.0023
501.3919	-0.0112
501.5907	-0.009
501.7895	-0.0074
501.9882	-0.0145
502.1869	-0.0061
502.3856	0.001
502.5843	-0.0142
502.783	-0.0045
502.9816	-0.0029
503.1803	-0.0085
503.3789	-0.0033
503.5775	-0.0011
503.7761	-0.0064
503.9747	-0.0036
504.1732	-0.0011
504.3718	-0.0021
504.5703	-0.001
504.7689	-0.0033
504.9674	0.001
505.1658	-0.0085
505.3643	-0.0018
505.5628	0.0005
505.7612	-0.0062
505.9597	-0.0132
506.1581	-0.0076
506.3565	-0.0022
506.5549	-0.0036
506.7532	-0.0082
506.9516	-0.0053
507.1499	0.0085
507.3482	-0.0037
507.5465	-0.0051
507.7448	0.0006
507.9431	-0.0068
508.1414	-0.0093
508.3396	-0.0052
508.5379	-0.0052
508.7361	-0.0031
508.9343	-0.005
509.1325	-0.0075
509.3306	-0.0007
509.5288	-0.007
509.7269	-0.0097
509.9251	-0.0033
510.1232	-0.001
510.3213	-0.0104
510.5193	-0.0049
510.7174	-0.0068
510.9154	-0.0065
511.1135	-0.0051
511.3115	-0.0107
511.5095	-0.0069
511.7075	-0.002
511.9055	-0.0079
512.1034	-0.0081
512.3014	-0.0076
512.4993	-0.0103
512.6972	-0.0005
512.8951	-0.0148
513.093	-0.0032
513.2908	0.0005
513.4887	-0.0072
513.6865	-0.007
513.8844	-0.0077
514.0822	-0.0044
514.2799	-0.0063
514.4777	-0.0091
514.6755	0.0013
514.8732	-0.0132
515.0709	-0.009
515.2687	-0.0068
515.4664	-0.0077
515.664	-0.0049
515.8617	-0.0068
516.0594	-0.0034
516.257	-0.0027
516.4546	-0.0096
516.6522	-0.0033
516.8498	-0.0115
517.0474	0.0006
517.2449	-0.01
517.4425	-0.0026
517.64	-0.0009
517.8375	-0.0086
518.035	-0.001
518.2325	-0.0106
518.43	-0.0032
518.6274	-0.0139
518.8249	-0.0028
519.0223	-0.0092
519.2197	-0.0004
519.4171	-0.0027
519.6145	-0.0061
519.8118	-0.011
520.0092	-0.0031
520.2065	-0.0161
520.4038	-0.0055
520.6011	-0.0166
520.7984	-0.0076
520.9956	-0.0067
521.1929	-0.0045
521.3901	-0.0091
521.5874	-0.0078
521.7846	-0.0004
521.9818	-0.0046
522.1789	-0.0034
522.3761	-0.0094
522.5732	-0.0065
522.7704	-0.0056
522.9675	-0.0021
523.1646	-0.0022
523.3617	-0.001
523.5587	-0.0055
523.7558	-0.0038
523.9528	-0.004
524.1498	-0.0057
524.3468	0.0031
524.5438	-0.0043
524.7408	-0.0123
524.9378	-0.0076
525.1347	-0.0029
525.3316	0.0003
525.5285	-0.0041
525.7254	-0.008
525.9223	-0.0032
526.1192	-0.0005
526.316	-0.0007
526.5129	-0.0032
526.7097	-0.0093
526.9065	-0.0009
527.1033	-0.0037
527.3	-0.007
527.4968	-0.0147
527.6935	-0.0087
527.8903	0.0007
528.087	-0.0142
528.2837	-0.0012
528.4804	-0.0038
528.677	0.0006
528.8737	-0.0071
529.0703	-0.0013
529.2669	0.0036
529.4635	-0.0058
529.6601	-0.0067
529.8567	-0.0047
530.0532	-0.0001
530.2498	-0.0054
530.4463	-0.0049
530.6428	-0.0007
530.8393	-0.0014
531.0358	-0.0077
531.2322	-0.0046
531.4287	-0.0075
531.6251	-0.0061
531.8215	0.0035
532.0179	-0.0043
532.2143	-0.0073
532.4107	-0.0009
532.607	-0.0079
532.8034	-0.0061
532.9997	-0.0086
533.196	-0.0095
533.3923	0.0004
533.5886	0.0023
533.7848	-0.0014
533.9811	-0.0073
534.1773	-0.0099
534.3735	-0.0038
534.5697	-0.004
534.7659	-0.0028
534.9621	0.0018
535.1582	-0.0098
535.3544	-0.0077
535.5505	-0.003
535.7466	-0.0067
535.9427	-0.0008
536.1387	0
536.3348	-0.0036
536.5308	-0.0052
536.7269	-0.0007
536.9229	0
537.1189	-0.0018
537.3148	0.0026
537.5108	0.0026
537.7068	-0.0113
537.9027	-0.0055
538.0986	0.0013
538.2945	-0.0043
538.4904	-0.0104
538.6863	-0.0087
538.8821	-0.0019
539.078	-0.011
539.2738	-0.0085
539.4696	-0.0098
539.6654	-0.0061
539.8611	-0.0066
540.0569	-0.0033
540.2526	-0.0072
540.4484	0.0084
540.6441	0.0008
540.8398	-0.0057
541.0355	-0.0031
541.2311	-0.004
541.4268	-0.0034
541.6224	0.0027
541.818	-0.0083
542.0136	-0.0038
542.2092	-0.005
542.4048	-0.0082
542.6003	-0.0048
542.7959	-0.0033
542.9914	-0.0065
543.1869	-0.0094
543.3824	-0.0061
543.5779	-0.0097
543.7734	-0.0104
543.9688	-0.0132
544.1642	-0.0034
544.3596	-0.0062
544.555	-0.0056
544.7504	-0.0084
544.9458	-0.0084
545.1411	0.0008
545.3365	0.0037
545.5318	0.0013
545.7271	-0.0007
545.9224	-0.0003
546.1177	-0.0092
546.3129	0.0022
546.5081	-0.0014
546.7034	-0.0044
546.8986	-0.0047
547.0938	-0.005
547.289	0.0036
547.4841	-0.0063
547.6793	-0.0057
547.8744	-0.0058
548.0695	-0.0036
548.2646	-0.005
548.4597	0.0008
548.6548	-0.001
548.8498	-0.0048
549.0448	-0.0005
549.2399	-0.0014
549.4349	0.0003
549.6298	-0.0071
549.8248	-0.0026
550.0198	-0.0011
550.2147	0.0013
550.4096	-0.0014
550.6045	-0.0065
550.7994	0.0025
550.9943	0.0016
551.1892	-0.0099
551.384	-0.0151
551.5788	-0.0079
551.7737	0.0015
551.9685	-0.0074
552.1632	-0.0038
552.358	-0.0025
552.5528	-0.0021
552.7475	-0.0082
552.9422	-0.0083
553.1369	-0.0022
553.3316	-0.0021
553.5263	-0.0032
553.7209	-0.0052
553.9156	-0.0065
554.1102	-0.0084
554.3048	-0.0089
554.4994	-0.0039
554.694	0.0015
554.8885	-0.0074
555.0831	-0.0026
555.2776	0.0016
555.4721	-0.0077
555.6666	-0.0043
555.8611	-0.0029
556.0555	-0.0051
556.25	-0.0088
556.4444	-0.0043
556.6388	-0.0042
556.8332	-0.007
557.0276	-0.0024
557.222	-0.0049
557.4163	0.0002
557.6107	-0.0015
557.805	-0.0019
557.9993	0.0002
558.1936	-0.0034
558.3879	-0.0006
558.5821	-0.0014
558.7764	-0.008
558.9706	-0.0031
559.1648	-0.0032
559.359	-0.0098
559.5532	-0.0037
559.7473	-0.0108
559.9415	-0.0055
560.1356	-0.0017
560.3297	-0.0095
560.5238	-0.0051
560.7179	-0.0075
560.9119	0.0049
561.106	-0.0015
561.3	-0.0054
561.494	-0.0078
561.688	-0.0022
561.882	-0.0032
562.076	-0.0034
562.2699	-0.0008
562.4639	-0.0071
562.6578	-0.0093
562.8517	-0.0063
563.0456	-0.0061
563.2395	-0.005
563.4333	0.001
563.6272	-0.0063
563.821	-0.0004
564.0148	0.0019
564.2086	-0.0002
564.4024	-0.0023
564.5961	-0.0009
564.7899	0.0059
564.9836	0.0056
565.1773	-0.0043
565.371	0
565.5647	-0.0011
565.7584	0.0064
565.952	0.004
566.1456	-0.0031
566.3393	-0.0041
566.5329	-0.0006
566.7264	0.004
566.92	0.0037
567.1136	0.0021
567.3071	0.002
567.5006	0.0011
567.6941	0.0009
567.8876	-0.002
568.0811	-0.0033
568.2745	-0.0066
568.468	-0.0056
568.6614	-0.0103
568.8548	-0.0041
569.0482	-0.0067
569.2416	-0.0017
569.4349	-0.0025
569.6283	-0.003
569.8216	-0.0048
570.0149	-0.008
570.2082	-0.0047
570.4015	-0.0049
570.5947	-0.0035
570.788	-0.0065
570.9812	-0.0009
571.1744	-0.0087
571.3676	-0.0079
571.5608	-0.0028
571.754	-0.0093
571.9471	-0.0054
572.1402	-0.0018
572.3333	0.0005
572.5264	-0.0011
572.7195	-0.0017
572.9126	-0.0019
573.1057	-0.0046
573.2987	0.0024
573.4917	-0.0058
573.6847	-0.0038
573.8777	-0.0035
574.0707	0.0018
574.2636	-0.0028
574.4566	-0.0029
574.6495	-0.0015
574.8424	-0.0012
575.0353	-0.0035
575.2281	-0.0005
575.421	-0.0084
575.6138	-0.0025
575.8067	-0.0008
575.9995	0.0006
576.1923	-0.0006
576.385	-0.0035
576.5778	-0.0041
576.7706	0.0029
576.9633	-0.0001
577.156	0.0041
577.3487	0.0032
577.5414	-0.0007
577.734	0.0049
577.9267	-0
578.1193	-0.0058
578.3119	-0.0017
578.5045	-0.0039
578.6971	-0.0027
578.8897	-0.0035
579.0822	-0.0008
579.2747	0.0067
579.4673	-0.0003
579.6598	0.0021
579.8522	0.0022
580.0447	0.0004
580.2372	0.0064
580.4296	0.002
580.622	0.004
580.8144	-0.0038
581.0068	-0.0012
581.1992	0.0012
581.3915	-0.0019
581.5839	-0.0022
581.7762	-0.003
581.9685	-0.0008
582.1608	-0.004
582.353	0.0008
582.5453	-0.0049
582.7375	0.002
582.9298	-0.004
583.122	0.0003
583.3142	-0.0036
583.5063	-0.0072
583.6985	-0.0045
583.8906	-0.0035
584.0827	-0.0024
584.2749	-0.0043
584.4669	-0.0046
584.659	-0.0069
584.8511	-0.002
585.0431	-0.0024
585.2352	-0.0038
585.4272	-0.006
585.6192	-0.0064
585.8111	-0.0048
586.0031	0.0023
586.195	-0.0044
586.387	-0.0005
586.5789	-0.0024
586.7708	-0.007
586.9627	-0.0046
587.1545	-0.0055
587.3464	-0.0035
587.5382	-0.0036
587.73	-0.0039
587.9218	-0.0047
588.1136	-0.0025
588.3053	-0.0022
588.4971	-0.0056
588.6888	-0.0041
588.8805	-0.0066
589.0722	-0.0004
589.2639	-0.0043
589.4556	-0.0007
589.6472	-0.0043
589.8389	0.0015
590.0305	-0.0051
590.2221	-0.004
590.4137	-0.0023
590.6052	-0.0067
590.7968	-0.0049
590.9883	0.0001
591.1798	-0.0112
591.3713	0.0013
591.5628	-0.0034
591.7543	0
591.9458	-0.0028
592.1372	-0.0037
592.3286	-0.0001
592.52	0.0021
592.7114	0.0033
592.9028	-0.0035
593.0941	-0.0024
593.2855	-0.002
593.4768	0.0022
593.6681	0.0016
593.8594	0.0012
594.0506	0.0017
594.2419	0.0038
594.4331	-0.003
594.6244	-0.0026
594.8156	-0.0005
595.0067	0.0011
595.1979	-0.0046
595.3891	-0.0039
595.5802	-0.0075
595.7713	-0.0032
595.9624	0.0015
596.1535	0.004
596.3446	-0.0017
596.5357	0.0005
596.7267	-0.002
596.9177	0.0034
597.1087	-0.0007
597.2997	0.0012
597.4907	-0.0021
597.6817	-0.0032
597.8726	-0.0062
598.0635	-0.0033
598.2544	-0.0071
598.4453	-0.0075
598.6362	-0.0005
598.827	-0.0014
599.0179	-0.0021
599.2087	-0.011
599.3995	-0.0088
599.5903	0.003
599.7811	-0.0011
599.9718	0.0027
600.1626	0.0004
600.3533	-0.005
600.544	-0.0039
600.7347	-0.0005
600.9254	-0.0013
601.116	-0.0066
601.3067	-0.0036
601.4973	-0.0071
601.6879	-0.0002
601.8785	-0.0024
602.0691	-0.004
602.2596	-0.0019
602.4502	-0.0033
602.6407	-0.0025
602.8312	-0.0036
603.0217	-0.0048
603.2122	-0.0034
603.4027	-0.0025
603.5931	-0.0022
603.7835	0.0007
603.9739	-0.0022
604.1643	-0.0046
604.3547	-0.0009
604.5451	-0.0027
604.7354	-0.0012
604.9257	0.0005
605.116	-0.0018
605.3063	0.0021
605.4966	-0.0008
605.6869	-0.0024
605.8771	-0.0019
606.0673	-0.0023
606.2575	-0.0057
606.4477	-0.0059
606.6379	-0.0069
606.8281	-0.0084
607.0182	-0.0077
607.2083	-0.0069
607.3985	-0.0069
607.5885	-0.002
607.7786	-0.0006
607.9687	0.0003
608.1587	-0.0044
608.3488	-0.0036
608.5388	0.0014
608.7288	-0.0017
608.9187	-0.0014
609.1087	-0.0043
609.2986	-0.0042
609.4886	-0.0033
609.6785	-0.0024
609.8684	-0.0025
610.0582	0.0003
610.2481	-0.003
610.4379	0.0015
610.6278	0.0019
610.8176	0.0024
611.0074	-0.0016
611.1971	0.0036
611.3869	-0.0039
611.5766	0.0055
611.7664	0.0056
611.9561	-0.0013
612.1458	0.0023
612.3354	-0.0069
612.5251	-0.0057
612.7147	-0.0013
612.9044	0
613.094	0.0002
613.2836	-0.0027
613.4731	-0.0049
613.6627	-0.0064
613.8522	0.0022
614.0417	-0.0032
614.2313	-0.004
614.4207	-0.0021
614.6102	0.0037
614.7997	-0.0045
614.9891	-0.003
615.1785	-0.0022
615.3679	0.0004
615.5573	0.0001
615.7467	0.0007
615.9361	-0.0043
616.1254	-0.0026
616.3147	-0.0039
616.504	-0.0039
616.6933	-0.0014
616.8826	0.0004
617.0718	-0.0008
617.2611	0.0024
617.4503	-0.0009
617.6395	-0.0016
617.8287	0.0024
618.0179	0.0023
618.207	-0
618.3961	0.0023
618.5853	-0.0027
618.7744	0.0003
618.9634	0.002
619.1525	-0.0035
619.3416	-0.0052
619.5306	-0.0014
619.7196	0.0024
619.9086	-0.0002
620.0976	-0.002
620.2866	0.0029
620.4755	-0.0025
620.6645	0.0006
620.8534	0.0028
621.0423	-0.0059
621.2312	-0.0073
621.42	-0.0024
621.6089	-0.0004
621.7977	-0.0033
621.9865	0.0016
622.1753	-0.0002
622.3641	0.0014
622.5529	0.0004
622.7416	-0.0044
622.9303	0.0026
623.1191	-0.0055
623.3078	0.0002
623.4964	-0.0035
623.6851	0.0029
623.8737	-0.0018
624.0624	0.0023
624.251	0.001
624.4396	0.0001
624.6282	-0.0028
624.8167	0.0031
625.0053	-0.0014
625.1938	0.0017
625.3823	0.0031
625.5708	0.0021
625.7593	-0.0036
625.9477	-0.0036
626.1362	-0.0001
626.3246	-0.0031
626.513	-0.0057
626.7014	-0.0027
626.8898	-0.0045
627.0781	-0.002
627.2665	-0.0034
627.4548	-0.0097
627.6431	-0.0079
627.8314	-0.0006
628.0197	0.0004
628.2079	-0.0011
628.3962	0.0024
628.5844	0.0024
628.7726	0.0012
628.9608	0.0015
629.1489	0.0032
629.3371	-0.0023
629.5252	0.0009
629.7134	0.0016
629.9015	-0.0018
630.0895	0.0023
630.2776	0.0023
630.4657	-0.0026
630.6537	-0.0004
630.8417	-0.0003
631.0297	-0.0004
631.2177	0.0007
631.4057	0.0088
631.5936	0.0001
631.7815	-0.004
631.9695	-0.0026
632.1574	-0.0038
632.3452	-0.0077
632.5331	-0.0028
632.7209	-0.001
632.9088	-0.0039
633.0966	-0.0019
633.2844	-0.0055
633.4722	-0.0028
633.6599	-0.0016
633.8477	-0.0039
634.0354	-0.0073
634.2231	-0.004
634.4108	-0.0048
634.5985	-0.0039
634.7861	-0.0028
634.9738	-0.0048
635.1614	-0.001
635.349	-0.0023
635.5366	-0.0032
635.7242	-0.0036
635.9117	0.0034
636.0993	-0.0054
636.2868	-0.0033
636.4743	-0.0029
636.6618	-0.0043
636.8492	0.0009
637.0367	-0.0014
637.2241	-0.0017
637.4115	-0.0024
637.5989	0.0021
637.7863	0.0039
637.9737	-0.0053
638.161	-0.0013
638.3484	-0.0018
638.5357	0.0005
638.723	0.0002
638.9103	0.0013
639.0975	0.004
639.2848	-0.0029
639.472	0.0057
639.6592	0.006
639.8464	0.0019
640.0336	-0.007
640.2208	0.0009
640.4079	-0.0017
640.595	0.0031
640.7821	-0.0025
640.9692	0.0027
641.1563	0.0018
641.3434	0.0013
641.5304	-0.0034
641.7174	0.0043
641.9044	0.0063
642.0914	0.0045
642.2784	0.0013
642.4653	0.0035
642.6523	-0.0008
642.8392	0.0069
643.0261	0.0087
643.213	0.0017
643.3999	-0.0024
643.5867	0.0002
643.7735	0.0017
643.9604	-0.0003
644.1472	-0.0009
644.3339	0.003
644.5207	-0.002
644.7075	0.0002
644.8942	-0.0022
645.0809	-0.0016
645.2676	-0.0023
645.4543	0.0033
645.6409	0.0004
645.8276	0.0027
646.0142	-0.0065
646.2008	-0.008
646.3874	-0.0042
646.574	-0.0061
646.7605	-0.003
646.9471	-0.0069
647.1336	-0.0001
647.3201	-0.0054
647.5066	0.0024
647.6931	-0.0009
647.8795	-0.0073
648.0659	-0.0049
648.2524	-0.0053
648.4388	-0.005
648.6252	-0.0064
648.8115	-0.0083
648.9979	-0.0017
649.1842	-0.0124
649.3705	0
649.5568	-0.0014
649.7431	0.0006
649.9294	-0.0015
650.1156	-0.0038
650.3018	-0.004
650.488	-0.0063
650.6742	-0.0035
650.8604	0.002
651.0466	0.0035
651.2327	0.0015
651.4188	-0.002
651.6049	0.0024
651.791	-0.0003
651.9771	0.0039
652.1632	0.0021
652.3492	0.0048
652.5352	0.0026
652.7212	0.0015
652.9072	0.0032
653.0932	0.0042
653.2791	-0.0029
653.465	0.0035
653.651	-0.0018
653.8369	-0.0044
654.0227	-0.0007
654.2086	-0.0008
654.3944	-0.0074
654.5803	-0.0066
654.7661	-0.0038
654.9519	-0.0022
655.1377	-0.0021
655.3234	0.0001
655.5092	0.0001
655.6949	0.0001
655.8806	0.0001
656.0663	0.0001
656.2519	0.0001
656.4376	-0.0027
656.6232	-0.0032
656.8088	-0.0007
656.9945	-0.0041
657.18	0.001
657.3656	-0.0013
657.5511	-0.0044
657.7367	-0.0024
657.9222	0.0039
658.1077	0.0001
658.2932	-0.0034
658.4786	0.0025
658.6641	-0.0012
658.8495	0.0021
659.0349	-0.0029
659.2203	-0.0085
659.4057	-0.007
659.591	-0.0024
659.7764	-0.0029
659.9617	-0.0073
660.147	-0.0046
660.3323	-0.0061
660.5176	-0.0073
660.7028	-0.0047
660.888	-0.0014
661.0733	0.0067
661.2585	-0.0069
661.4436	0.0007
661.6288	-0.0008
661.8139	0.0018
661.9991	0.0022
662.1842	-0.0001
662.3693	-0.0026
662.5544	-0.0018
662.7394	-0.0003
662.9245	0.0045
663.1095	0.0043
663.2945	-0.0005
663.4795	-0.0045
663.6644	-0.0053
663.8494	-0.0029
664.0343	-0.0033
664.2193	-0.0019
664.4042	-0.0087
664.589	-0.0017
664.7739	-0.0027
664.9587	0.0026
665.1436	0.0015
665.3284	-0.0044
665.5132	0.0014
665.698	0.0009
665.8827	0.0041
666.0675	-0.0068
666.2522	-0.0069
666.4369	-0.0052
666.6216	-0.0079
666.8063	-0.0061
666.9909	-0.0097
667.1756	-0.0054
667.3602	-0.0109
667.5448	-0.0099
667.7294	-0.0045
667.9139	-0.0067
668.0985	-0.0118
668.283	-0.0058
668.4675	-0.013
668.652	-0.0073
668.8365	-0.007
669.0209	-0.009
669.2054	-0.0036
669.3898	-0.0046
669.5742	-0.0076
669.7586	-0.0033
669.943	-0.0065
670.1273	-0.0086
670.3117	-0.0064
670.496	-0.008
670.6803	0.0032
670.8646	-0.0047
671.0488	0.0055
671.2331	-0.0006
671.4173	0.0009
671.6015	0.001
671.7857	-0.0049
671.9699	-0.005
672.1541	-0.0043
672.3382	-0.0076
672.5223	-0.007
672.7064	-0.0059
672.8905	-0.0103
673.0746	-0.0135
673.2587	-0.0114
673.4427	-0.01
673.6267	-0.0098
673.8107	-0.0098
673.9947	-0.0115
674.1787	-0.0073
674.3626	-0.009
674.5465	-0.0052
674.7304	-0.0017
674.9143	-0.004
675.0982	0.0016
675.2821	-0.0048
675.4659	-0.0031
675.6497	0.0006
675.8335	-0.0055
676.0173	-0.0021
676.2011	-0.0048
676.3849	-0.0027
676.5686	-0.0015
676.7523	-0.0028
676.936	-0.0028
677.1197	-0.0025
677.3034	-0.0039
677.487	-0.0061
677.6706	-0.0085
677.8542	-0.0047
678.0378	-0.0022
678.2214	-0.0057
678.405	-0.0003
678.5885	-0.0107
678.772	-0.0018
678.9555	-0.0001
679.139	-0.0084
679.3225	-0.0075
679.5059	-0.0037
679.6894	-0.0025
679.8728	-0.0006
680.0562	0.0023
680.2395	-0.0016
680.4229	-0.0004
680.6062	0.0035
680.7896	0.0032
680.9729	-0.0024
681.1562	-0.0001
681.3394	0.0025
681.5227	-0.0035
681.7059	-0.007
681.8891	-0.0022
682.0723	-0.0043
682.2555	-0.0026
682.4387	0.0013
682.6218	-0.0037
682.805	-0.0026
682.9881	-0.0018
683.1712	0.0049
683.3542	0.0013
683.5373	-0.0058
683.7203	-0.0044
683.9034	-0.0024
684.0864	-0.0056
684.2694	-0.0026
684.4523	-0.0038
684.6353	0.0045
684.8182	-0.0015
685.0011	-0.0029
685.184	0.0004
685.3669	-0.0074
685.5498	-0.0034
685.7326	-0.0023
685.9154	-0.0052
686.0982	-0.0068
686.281	-0.003
686.4638	-0.0062
686.6465	-0.0029
686.8293	-0.0067
687.012	-0.0037
687.1947	-0.0061
687.3774	-0.0013
687.56	-0.0061
687.7427	-0.0028
687.9253	-0.0011
688.1079	0.0041
688.2905	-0.001
688.4731	-0.0011
688.6556	-0.0021
688.8382	-0.0024
689.0207	0.0008
689.2032	0.0037
689.3857	0.0005
689.5681	0.0002
689.7506	0.0033
689.933	-0.0017
690.1154	-0.0015
690.2978	-0.001
690.4802	-0.0035
690.6626	0.0045
690.8449	0.0003
691.0272	0.0021
691.2095	0.0054
691.3918	-0.0038
691.5741	-0.0033
691.7563	-0.0019
691.9386	-0.0045
692.1208	-0.0069
692.303	-0.0059
692.4852	0.0011
692.6673	0.0041
692.8495	-0.0086
693.0316	-0.0009
693.2137	-0.0059
693.3958	-0.0036
693.5778	0.0004
693.7599	-0.0078
693.9419	-0.0076
694.1239	-0.0023
694.3059	-0.0082
694.4879	-0.0039
694.6699	-0.0046
694.8518	-0.0059
695.0337	-0.0094
695.2157	-0.0007
695.3975	-0.0046
695.5794	-0.0038
695.7613	-0.0074
695.9431	-0.0025
696.1249	-0.0016
696.3067	-0.0065
696.4885	-0.0033
696.6703	-0.001
696.852	-0.0028
697.0337	-0.0012
697.2154	0.0002
697.3971	-0.0053
697.5788	0.0019
697.7605	-0.0057
697.9421	-0.0098
698.1237	-0.006
698.3053	-0.0037
698.4869	-0.0037
698.6685	-0.0084
698.85	-0.0044
699.0315	-0.0022
699.213	0.0006
699.3945	0.0017
699.576	0.008
699.7575	-0.0013
699.9389	0.0008
700.1203	-0.003
700.3017	-0.0035
700.4831	-0.0002
700.6645	-0.0098
700.8458	-0.0032
701.0271	0.0022
701.2084	-0.0038
701.3897	0.0002
701.571	-0.0023
701.7523	-0.001
701.9335	0.0082
702.1147	0.0082
702.2959	-0.0016
702.4771	-0.0006
702.6583	-0.0014
702.8394	-0.0019
703.0205	-0.0034
703.2016	-0.0046
703.3827	0.0091
703.5638	-0.0035
703.7449	0.0002
703.9259	0.0041
704.1069	0.0013
704.2879	-0.0055
704.4689	-0.006
704.6499	-0.0046
704.8308	-0.0031
705.0117	0.0009
705.1927	-0.0015
705.3735	0.0016
705.5544	0.0039
705.7353	0.0007
705.9161	0.0006
706.0969	0.0083
706.2777	0
706.4585	0.0009
706.6393	-0.0022
706.82	-0.0035
707.0007	-0.005
707.1815	-0
707.3621	-0.0037
707.5428	-0.0031
707.7235	0.0002
707.9041	0.0036
708.0847	-0.0019
708.2653	-0.0009
708.4459	-0.0035
708.6265	-0.0026
708.807	0.0015
708.9875	-0.006
709.168	-0.0035
709.3485	-0.0023
709.529	-0.0021
709.7095	-0.0033
709.8899	-0.0042
710.0703	0.0032
710.2507	-0.0039
710.4311	-0.001
710.6115	0.0018
710.7918	-0.0025
710.9721	0.0035
711.1524	0.0023
711.3327	0.0046
711.513	-0.0034
711.6932	-0.0024
711.8735	0.0014
712.0537	-0.0041
712.2339	-0.0041
712.4141	0.0023
712.5942	-0.001
712.7744	0.0046
712.9545	0.0031
713.1346	-0.0025
713.3147	0.0022
713.4947	0.0021
713.6748	-0.0026
713.8548	-0.005
714.0348	-0.0019
714.2148	-0.0033
714.3948	-0.0026
714.5748	-0.0093
714.7547	-0.008
714.9346	-0.0009
715.1145	-0.0078
715.2944	0.0026
715.4743	-0.0077
715.6541	-0.0025
715.834	-0.0062
716.0138	0.0013
716.1936	0.0008
716.3733	-0.0037
716.5531	0.0027
716.7328	-0.0007
716.9126	0.0005
717.0923	-0.0034
717.2719	-0.0071
717.4516	-0.0024
717.6312	0.0018
717.8109	-0.0002
717.9905	-0.0094
718.1701	-0.0013
718.3496	-0
718.5292	-0.0042
718.7087	-0.0041
718.8882	-0.0031
719.0677	-0.0013
719.2472	-0.0042
719.4267	-0.0082
719.6061	-0.0034
719.7856	-0.0017
719.965	-0.0059
720.1443	-0.0035
720.3237	-0.0028
720.5031	-0.0103
720.6824	-0.0053
720.8617	-0.0083
721.041	-0.0022
721.2203	-0.0102
721.3995	-0.0016
721.5788	-0.0101
721.758	-0.0046
721.9372	-0.0032
722.1164	-0.0058
722.2956	-0.0077
722.4747	-0.002
722.6538	-0.0098
722.8329	-0.003
723.012	-0.0066
723.1911	0.0016
723.3702	-0.0036
723.5492	-0.006
723.7282	-0.0017
723.9072	-0.0009
724.0862	-0.0005
724.2652	-0.0012
724.4441	-0.0078
724.623	-0.0013
724.8019	-0.0014
724.9808	0.003
725.1597	0.0038
725.3385	0.0079
725.5174	0.0018
725.6962	-0.0066
725.875	0.0049
726.0538	0.0086
726.2325	0.0007
726.4112	-0.0007
726.59	-0.0004
726.7687	-0.0014
726.9474	-0.0008
727.126	0.0012
727.3047	-0.002
727.4833	0.0028
727.6619	-0.0034
727.8405	0.0009
728.0191	-0.0005
728.1976	-0.0036
728.3762	-0.0031
728.5547	-0.0052
728.7332	-0.0072
728.9116	-0.0124
729.0901	-0.0117
729.2686	-0.0108
729.447	-0.0054
729.6254	-0.003
729.8038	-0.0058
729.9821	-0.0055
730.1605	0.0004
730.3388	-0.0013
730.5171	-0.0039
730.6954	0.0004
730.8737	-0.0014
731.0519	0.0025
731.2302	0.0014
731.4084	0.0051
731.5866	-0.0011
731.7648	0.0056
731.9429	0.0059
732.1211	0.0011
732.2992	-0.0024
732.4773	0.0031
732.6554	-0.0037
732.8335	-0.0086
733.0115	-0.0085
733.1896	-0.0045
733.3676	-0.0049
733.5456	-0.0017
733.7235	-0.0013
733.9015	0.003
734.0794	-0.003
734.2574	-0.0029
734.4353	-0.0023
734.6131	0.0041
734.791	-0.0037
734.9689	-0.0059
735.1467	0.0065
735.3245	-0.0003
735.5023	-0.0014
735.68	-0.0029
735.8578	0.0008
736.0355	0.0078
736.2132	0.0026
736.3909	-0.0024
736.5686	-0.0001
736.7463	-0.0064
736.9239	-0.0006
737.1015	-0.0029
737.2791	-0.0119
737.4567	-0.007
737.6343	0.0041
737.8118	-0.006
737.9894	-0.0008
738.1669	0.0005
738.3444	-0.0049
738.5218	0.0026
738.6993	0.0023
738.8767	-0.0003
739.0541	-0.0055
739.2315	-0.0056
739.4089	0.0024
739.5863	-0.0033
739.7636	-0.003
739.9409	0.0009
740.1182	0.0028
740.2955	0.0013
740.4728	-0.0024
740.65	-0.006
740.8272	0.0048
741.0044	-0.0035
741.1816	-0.0014
741.3588	0.0023
741.5359	0.0017
741.7131	0.0002
741.8902	-0.0006
742.0673	0.0041
742.2444	-0.0069
742.4214	-0.0037
742.5985	-0.0014
742.7755	-0.0013
742.9525	-0.0021
743.1295	-0.0004
743.3064	-0.0045
743.4834	0.0005
743.6603	-0.0069
743.8372	0.0074
744.0141	-0.004
744.191	-0.0082
744.3678	-0.0035
744.5446	0.0008
744.7215	-0.0077
744.8982	0.0006
745.075	0.0004
745.2518	-0.0019
745.4285	0.0018
745.6052	-0
745.7819	-0.0031
745.9586	0.0026
746.1353	-0.0028
746.3119	0.0054
746.4885	0.0038
746.6651	-0.0022
746.8417	-0.0042
747.0183	-0.0028
747.1948	-0.0039
747.3714	-0.0022
747.5479	-0.0053
747.7244	-0.0038
747.9008	0.0044
748.0773	0.0009
748.2537	0.0055
748.4301	0.0058
748.6065	0.0012
748.7829	0.0064
748.9593	0.0026
749.1356	-0.0051
749.3119	-0.001
749.4882	0.0062
749.6645	-0.0003
749.8408	-0.0017
750.017	-0.0018
750.1933	-0.0029
750.3695	-0.0062
750.5457	-0.007
750.7218	-0.0039
750.898	-0.0034
751.0741	-0.0084
751.2502	-0.0026
751.4263	-0.0034
751.6024	-0.0004
751.7784	0.0054
751.9545	0.0011
752.1305	0.0041
752.3065	-0.0021
752.4825	-0.0047
752.6584	-0.0022
752.8344	0.0001
753.0103	0.0008
753.1862	0.0037
753.3621	-0.0045
753.5379	-0.0036
753.7138	0.0028
753.8896	-0.0094
754.0654	-0.0015
754.2412	-0.0131
754.417	-0.0076
754.5927	-0.0081
754.7685	-0.0097
754.9442	-0.0041
755.1199	-0.0067
755.2956	-0.0046
755.4712	-0.0058
755.6469	-0.0098
755.8225	-0.0053
755.9981	-0.0024
756.1736	0.0034
756.3492	-0.0052
756.5248	0.0002
756.7003	-0.0085
756.8758	-0.0063
757.0513	-0.0071
757.2267	-0.0114
757.4022	-0.0034
757.5776	-0.0079
757.753	-0.0081
757.9284	-0.0047
758.1038	-0.0049
758.2791	-0.0134
758.4545	-0.009
758.6298	-0.0041
758.8051	-0.0042
758.9803	-0.0112
759.1556	-0.0084
759.3308	-0.0082
759.506	-0.0095
759.6812	-0.0064
759.8564	-0.0045
760.0316	-0.0057
760.2067	-0.0103
760.3819	0.0036
760.557	-0.0042
760.732	-0.006
760.9071	-0.0129
761.0821	-0.0151
761.2572	-0.0116
761.4322	-0.0096
761.6072	-0.0066
761.7821	-0.0088
761.9571	-0.0042
762.132	-0.0082
762.3069	0.0005
762.4818	-0.0078
762.6567	-0.0063
762.8316	-0.0044
763.0064	-0.0007
763.1812	0.0027
763.356	-0.0019
763.5308	-0.0017
763.7055	0.0012
763.8803	-0.0037
764.055	-0.0037
764.2297	0.0028
764.4044	0.0033
764.579	0.0052
764.7537	-0.0036
764.9283	-0.0029
765.1029	0.0002
765.2775	0.0027
765.4521	0.0062
765.6266	-0.0002
765.8011	0.0063
765.9756	0.0037
766.1501	0.0059
766.3246	-0.0042
766.4991	-0.0023
766.6735	-0.0053
766.8479	-0.0082
767.0223	0.0077
767.1967	-0.0026
767.371	0.0002
767.5454	-0.0026
767.7197	-0.0009
767.894	-0.0029
768.0683	0.003
768.2425	-0.0072
768.4168	-0.0064
768.591	0.0059
768.7652	-0.0111
768.9394	0.0021
769.1135	0.0078
769.2877	0.0016
769.4618	0.0047
769.6359	0.0063
769.81	0.0013
769.984	-0.0111
770.1581	0.0016
770.3321	-0.0038
770.5061	-0.0041
770.6801	0.0007
770.8541	-0.0074
771.028	0.0082
771.202	0.0103
771.3759	-0.0032
771.5498	0.0027
771.7236	-0.0002
771.8975	0.0029
772.0713	0.0111
772.2451	0.0085
772.4189	0.001
772.5927	-0.0033
772.7665	0.0011
772.9402	-0.0002
773.1139	0.0003
773.2876	0.0038
773.4613	0.0017
773.635	-0.0023
773.8086	0.0049
773.9822	0.0034
774.1558	-0.0036
774.3294	0.0065
774.503	0.0062
774.6765	-0.009
774.8501	0.0143
775.0236	-0.0076
775.1971	0.0021
775.3705	0.0006
775.544	0.0011
775.7174	0.0028
775.8908	-0.0004
776.0642	-0.0018
776.2376	-0.0035
776.4109	-0.0073
776.5843	0.01
776.7576	-0.0017
776.9309	0.0027
777.1041	-0.0052
777.2774	0.0084
777.4506	0.0041
777.6238	-0.0012
777.797	-0.001
777.9702	-0.0052
778.1434	0.0051
778.3165	0.0063
778.4896	-0.0083
778.6627	0.0012
778.8358	-0.0095
779.0089	0.0017
779.1819	0.0004
779.3549	0.0007
779.5279	-0.0009
779.7009	-0.001
779.8739	-0.0027
780.0468	0.0041
780.2197	0.0022
780.3926	-0.0006
780.5655	-0.0058
780.7384	0.0027
780.9112	-0.002
781.0841	0.0004
781.2569	-0.0036
781.4297	-0.0048
781.6024	-0.0019
781.7752	-0.0026
781.9479	-0.0004
782.1206	0.0013
782.2933	-0.0038
782.466	-0.0014
782.6386	0.0007
782.8113	-0.017
782.9839	-0.0031
783.1565	-0.0044
783.329	-0.0099
783.5016	-0.0014
783.6741	-0.0068
783.8466	-0.0112
784.0191	-0.0045
784.1916	-0.0012
784.3641	-0.0006
784.5365	0.0009
784.7089	0.0054
784.8813	0.0133
785.0537	0.0112
785.2261	-0.0038
785.3984	-0.0076
785.5707	0.0016
785.743	0.0106
785.9153	-0.0019
786.0876	0.0068
786.2598	0.0053
786.432	0.0075
786.6042	0.012
786.7764	0.0096
786.9486	0.0009
787.1207	-0.0077
787.2928	0.0026
787.4649	-0.0029
787.637	-0.0065
787.8091	0.0004
787.9811	0.0101
788.1532	0.0029
788.3252	-0.0053
788.4972	-0.0021
788.6691	-0.0041
788.8411	0.004
789.013	0.0033
789.1849	0.009
789.3568	-0.0096
789.5287	-0.0026
789.7005	0.0053
789.8723	0.0008
790.0442	-0.0076
790.2159	-0.0033
790.3877	0.0017
790.5595	-0.0035
790.7312	0.0067
790.9029	-0.0034
791.0746	-0.001
791.2463	-0.0003
791.4179	-0.0038
791.5896	0.0033
791.7612	-0.0008
791.9328	0.0081
792.1044	-0.0091
792.2759	0.0052
792.4474	0.0017
792.619	-0.0131
792.7905	-0.0076
792.9619	-0.0059
793.1334	-0.0017
793.3048	0.0032
793.4762	-0.0085
793.6476	-0.0155
793.819	-0.0017
793.9904	-0.0097
794.1617	-0.0092
794.333	-0.0066
794.5043	-0.0025
794.6756	0.008
794.8469	0.0051
795.0181	-0.003
795.1893	-0.0034
795.3605	-0.0096
795.5317	-0.0068
795.7029	-0.005
795.874	-0.0144
796.0452	-0.0016
796.2163	-0.0039
796.3873	-0.0072
796.5584	-0.0043
796.7294	-0.0088
796.9005	-0.0171
797.0715	-0.0088
797.2425	-0.0104
797.4134	-0.0067
797.5844	-0.0078
797.7553	-0.0071
797.9262	-0.0083
798.0971	-0.008
798.2679	-0.0073
798.4388	-0.0103
798.6096	-0.017
798.7804	-0.0134
798.9512	-0.0137
799.122	-0.004
799.2927	-0.004
799.4635	-0.0089
799.6342	-0.0029
799.8049	-0.0033
799.9755	-0.0067
800.1462	-0.0218
800.3168	-0.0146
800.4874	-0.0045
800.658	-0.0206
800.8286	-0.0118
800.9991	-0.0148
801.1696	-0.0022
801.3402	-0.015
801.5106	-0.0155
801.6811	-0.0209
801.8516	-0.0101
802.022	-0.0239
802.1924	-0.0194
802.3628	-0.0212
802.5332	-0.0089
802.7035	-0.0201
802.8739	-0.0144
803.0442	-0.0173
803.2145	-0.0189
803.3847	-0.0175
803.555	-0.0153
803.7252	-0.015
803.8954	-0.0154
804.0656	0.0046
804.2358	-0.0127
804.4059	-0.0026
804.5761	-0.0037
804.7462	-0.0092
804.9163	-0.0012
805.0864	-0.0088
805.2564	-0.0103
805.4264	-0.0142
805.5965	-0.012
805.7665	-0.0049
805.9364	-0.0077
806.1064	-0.0029
806.2763	-0.0054
806.4462	-0.0055
806.6161	-0.0103
806.786	-0.0101
806.9559	-0.0063
807.1257	-0.009
807.2955	0.0007
807.4653	-0.0109
807.6351	-0.0025
807.8048	0.0077
807.9746	-0.007
808.1443	-0.0019
808.314	0.0009
808.4837	0.0076
808.6533	-0.0098
808.8229	-0.0026
808.9926	0.0022
809.1622	-0.0091
809.3317	0.0153
809.5013	0.0116
809.6708	0.0067
809.8403	0.0014
810.0098	0.0099
810.1793	-0.0004
810.3488	0.0117
810.5182	-0.0046
810.6876	-0.0085
810.857	-0.0042
811.0264	-0.0121
811.1958	0.0118
811.3651	-0.0077
811.5344	-0.0037
811.7037	-0.0224
811.873	-0.0024
812.0422	-0.0029
812.2115	-0.0018
812.3807	0.0091
812.5499	-0.003
812.7191	-0.0073
812.8882	-0.0014
813.0574	-0.0047
813.2265	0.0087
813.3956	0.0012
813.5646	-0.0065
813.7337	0.0038
813.9027	0.0111
814.0718	-0.0055
814.2407	0.0136
814.4097	0.0014
814.5787	0.004
814.7476	0.0005
814.9165	0.0092
815.0854	-0.0011
815.2543	0.0004
815.4232	0.0014
815.592	0.0001
815.7608	-0.0028
815.9296	0.0068
816.0984	-0.003
816.2671	0.0041
816.4359	0.0023
816.6046	0.0006
816.7733	0.0021
816.942	0.0055
817.1106	-0.0045
817.2793	-0.0018
817.4479	-0.0009
817.6165	-0.0146
817.785	-0.0015
817.9536	-0.0052
818.1221	-0.001
818.2906	-0.0083
818.4591	-0.0059
818.6276	-0.0006
818.7961	-0.0038
818.9645	-0.006
819.1329	-0.0041
819.3013	-0.0024
819.4697	-0.0029
819.638	0.0032
819.8064	-0.0105
819.9747	0.0075
820.143	0.0069
820.3113	-0.0051
820.4795	0.0156
820.6477	-0.0015
820.816	0.0103
820.9842	-0.0055
821.1523	-0.014
821.3205	-0.004
821.4886	-0.0037
821.6567	-0.0092
821.8248	-0.0068
821.9929	-0.0136
822.1609	-0.0141
822.329	0.001
822.497	-0.0143
822.665	-0.012
822.833	-0.0146
823.0009	-0.0102
823.1688	-0.0109
823.3367	-0.0074
823.5046	-0.0112
823.6725	0.0035
823.8404	0.0027
824.0082	-0.0068
824.176	0.006
824.3438	-0.002
824.5116	0.017
824.6793	0.0003
824.847	-0.0033
825.0147	-0.0046
825.1824	-0.0234
825.3501	0.0057
825.5177	-0.0083
825.6854	0.0071
825.853	0.0026
826.0206	0.0071
826.1881	-0.0039
826.3557	0.0114
826.5232	0.0003
826.6907	-0.0048
826.8582	0.0101
827.0257	-0.0168
827.1931	0.0378
827.3605	0.0038
827.528	0.0055
827.6953	0.0009
827.8627	-0.0022
828.03	0.0014
828.1974	0.0071
828.3647	-0.0007
828.532	-0.004
828.6992	-0.0143
828.8665	-0.0163
829.0337	-0.0014
829.2009	0.0049
829.3681	-0.0203
829.5352	0.0083
829.7024	0.0037
829.8695	-0.0157
830.0366	-0.0246
830.2037	-0.0002
830.3707	-0.0214
830.5378	-0.0074
830.7048	-0.0179
830.8718	-0.0039
831.0388	0.0111
831.2057	-0.0057
831.3727	-0.0261
831.5396	0.0235
831.7065	0.0049
831.8734	0.0196
832.0402	-0.0023
832.2071	0.0157
832.3739	0.0175
832.5407	0.0168
832.7075	-0.0039
832.8742	-0.0078
833.041	0.0082
833.2077	-0.0254
833.3744	-0.0051
833.541	0.0054
833.7077	-0.0048
833.8743	-0.0009
834.0409	0.0177
834.2075	0.0119
834.3741	0.0034
834.5407	0.0056
834.7072	0.0194
834.8737	-0.0005
835.0402	-0.0207
835.2067	-0.0187
835.3731	0.0046
835.5395	-0.0104
835.706	-0.0193
835.8723	-0.0132
836.0387	-0.0187
836.2051	-0.004
836.3714	0.0074
836.5377	0.0157
836.704	0.01
836.8703	-0.0291
837.0365	0.0071
837.2027	0.0037
837.3689	-0.0041
837.5351	-0.0214
837.7013	-0.0107
837.8674	0.0155
838.0335	0.0036
838.1997	0.0129
838.3657	0.001
838.5318	-0.011
838.6978	-0.0101
838.8639	-0.0053
839.0299	-0.0023
839.1958	-0.0009
839.3618	0.02
839.5277	-0.0186
839.6937	-0.02
839.8596	-0.0054
840.0254	0.0008
840.1913	0.005
840.3571	0.0103
840.523	0.0136
840.6888	0.0086
840.8545	-0.0093
841.0203	-0.0158
841.186	0.0002
841.3517	-0.0031
841.5174	0.0151
841.6831	-0.0007
841.8488	0.0055
842.0144	0.0152
842.18	0.0012
842.3456	0.0273
842.5112	0.0157
842.6767	-0.0185
842.8422	0.0238
843.0077	-0.0011
843.1732	-0.0014
843.3387	-0.0021
843.5042	0.0206
843.6696	0.0071
843.835	0.0067
844.0004	0.0273
844.1657	-0.0116
844.3311	0.0059
844.4964	0.0105
844.6617	0.0342
844.827	0.0113
844.9923	0.014
845.1575	0.0003
845.3227	-0.0107
845.4879	0.0038
845.6531	0.0102
845.8183	-0.034
845.9834	0.0079
846.1485	0.0203
846.3136	-0.0425
846.4787	0.0066
846.6438	-0.0103
846.8088	0.0197
846.9738	-0.028
847.1388	-0.004
847.3038	0.0063
847.4687	-0.0148
847.6337	0.0075
847.7986	0.0352
847.9635	0.0307
848.1284	-0.0044
848.2932	0.0148
848.458	0.0442
848.6228	0.0374
848.7876	-0.0211
848.9524	0.0625
849.1172	0.0009
849.2819	0.0223
849.4466	0.0045
849.6113	0.0124
849.7759	0.0236
849.9406	0.0253
850.1052	0.0266
850.2698	-0.0175
850.4344	0.0458
850.599	-0.0075
850.7635	0.0357
850.928	0.0004
851.0925	0.0143
851.257	-0.0179
851.4215	-0.0281
851.5859	0.0301
851.7503	-0.004
851.9147	0.0038
852.0791	0.052
852.2434	0.0113
852.4078	0.0456
852.5721	-0.0156
852.7364	-0.0807
852.9007	0.0239
853.0649	0.0026
853.2291	-0.056
853.3934	-0.0069
853.5575	-0.0137
853.7217	-0.0342
853.8859	0.0079
854.05	0.0045
854.2141	-0.0378
854.3782	0.048
854.5423	0.0091
854.7063	-0.0058
854.8703	0.0361
855.0343	-0.0137
855.1983	-0.0114
855.3623	0.0131
855.5262	0.0682
855.6901	-0.02
855.854	-0.0042
856.0179	0.0392
856.1818	0.0333
856.3456	-0.0128
856.5094	-0.0205
856.6732	-0.0627
856.837	0.0074
857.0008	0.0088
857.1645	0.0971
857.3282	0.0342
857.4919	0.0009
857.6556	0.0663
857.8192	0.078
857.9828	0.11
858.1465	0.0861
858.31	0.0461
858.4736	-0.0937
858.6372	0.0581
858.8007	0.0152
858.9642	-0.1225
859.1277	0.0604
859.2911	0.0801
859.4546	0.0567
859.618	0.004
859.7814	0.0297
859.9448	-0.1026
860.1081	0.0014
860.2715	0.0497
860.4348	-0.0301
860.5981	-0.0021
860.7614	0.0182
860.9246	0.0174
861.0879	-0.0429
861.2511	0.0633
861.4143	-0.0924
861.5774	-0.0222
861.7406	0.0262
861.9037	-0.0343
862.0668	-0.0062
862.2299	-0.0488
862.393	0.01
862.556	0.0939
862.7191	0.0359
862.8821	0.0862
863.0451	0.0159
863.208	-0.1367
863.371	0.0207
863.5339	-0.042
863.6968	0.0053
863.8597	-0.0006
864.0225	-0.1662
864.1854	0.1415
864.3482	0.1532
864.511	-0.1238
864.6737	-0.011
864.8365	0.1062
864.9992	0.0162
865.1619	-0.0064
865.3246	-0.0661
865.4873	0.3023
865.65	0.1478
865.8126	0.0758
865.9752	-0.0902
866.1378	0.0027
866.3004	0.0426
866.4629	-0.1156
866.6254	0.0241
866.7879	0.143
866.9504	0.121
867.1129	-0.0768
867.2753	0.07
867.4377	0.0554
867.6001	-0.3059
867.7625	-0.0008
867.9249	-0.074
868.0872	0.0531
868.2495	0.003
868.4118	-0.0787
868.5741	-0.0463
868.7363	0.1849
868.8986	-0.073
869.0608	-0.0952
869.223	0.1248
869.3851	0.2479
869.5473	-0.0782
869.7094	-0.0361
869.8715	0.1095
870.0336	-0.0385
870.1957	0.0785
870.3577	0.3081
870.5197	-0.025
870.6817	-0.2621
870.8437	0.5082
871.0057	-0.272
871.1676	-0.1286
871.3295	0.224
871.4914	-0.0499
871.6533	-0.0103
871.8151	-0.0578
871.977	0.0625
872.1388	-0.0229
872.3006	-0.0302
872.4623	0.4614
872.6241	-0.1333
872.7858	0.1685
872.9475	0.115
873.1092	-0.0518
873.2709	0.0629
873.4325	-0.0852
873.5941	-0.2228
873.7557	0.1268
873.9173	-0.0387
874.0789	0.1012
874.2404	0.3274
874.4019	0.177
874.5634	-0.0955
874.7249	-0.104
874.8863	-0.0433
875.0478	0.2191
875.2092	-0.174
875.3706	-0.2343
875.5319	0.0231
875.6933	-0.0933
875.8546	-0.3893
876.0159	0.1405
876.1772	-0.0575
876.3385	0.2312
876.4997	0.2151
876.6609	-0.2041
876.8221	0.1767
876.9833	-0.3175
877.1445	0.1493
877.3056	0.0053
877.4667	-0.4361
877.6278	0.2627
877.7889	0.1637
877.9499	-0.6837
878.111	-0
878.272	0.0055
878.433	0.2071
878.5939	-0.0407
878.7549	-0.27
878.9158	-0.0497
879.0767	0.1714
879.2376	0.1527
879.3984	-0.0237
879.5593	-0.1495
879.7201	-0
879.8809	-0.0189
880.0417	0.0811
880.2024	0.2377
880.3632	1.1516
880.5239	-0
880.6846	0.0328
880.8452	0.2495
881.0059	-0.3402
881.1665	0.2488
881.3271	-0.248
881.4877	0.1402
881.6483	-0
881.8088	-0.1935
881.9693	0.0572
882.1298	0.0572
882.2903	0.0572
