Data from D4ACN5uM440nmA_Absorbance_13-50-25-147.txt Node
Date: Fri Feb 21 13:50:25 GMT 2025
User: LASERRRRR
Spectrometer: FLMT03099
Trigger mode: 0
Integration Time (sec): 1.500000E-2
Scans to average: 1
Electric dark correction enabled: true
Nonlinearity correction enabled: false
Boxcar width: 0
XAxis mode: Wavelengths
Number of Pixels in Spectrum: 3648
>>>>>Begin Spectral Data<<<<<
179.3399	-0.4927
179.5586	-0.4927
179.7771	-0.4927
179.9957	-0.2595
180.2143	-1.8205
180.4329	1.0548
180.6514	-0
180.8699	-0
181.0885	-0
181.307	1.9042
181.5255	0.2479
181.744	1.3979
181.9625	-0
182.181	-0.3248
182.3994	-0.5837
182.6179	-0.4947
182.8363	-0
183.0547	-0.2004
183.2732	0.1769
183.4916	0.1689
183.71	0.1149
183.9284	0.0081
184.1467	0.0176
184.3651	-0.1024
184.5835	0.3716
184.8018	0.2734
185.0201	0.0963
185.2385	0.1515
185.4568	0.09
185.6751	0.0617
185.8934	0.154
186.1117	-0.1493
186.3299	0.2358
186.5482	0.0913
186.7664	0.1369
186.9847	-0.0399
187.2029	0.3718
187.4211	-0.0884
187.6393	0.2292
187.8575	0.0641
188.0757	0.637
188.2939	-0.0076
188.512	0.2008
188.7302	0.0829
188.9483	0.1576
189.1665	0.8379
189.3846	0.3873
189.6027	0.0221
189.8208	0.181
190.0389	-0.011
190.257	0.0473
190.475	0.114
190.6931	0.1927
190.9111	0.1919
191.1292	0.0588
191.3472	0.0714
191.5652	0.2577
191.7832	0.0602
192.0012	0.1381
192.2192	0.112
192.4371	0.2262
192.6551	0.2715
192.873	0.2392
193.091	0.1684
193.3089	0.2045
193.5268	0.1322
193.7447	0.1376
193.9626	0.2267
194.1805	0.17
194.3984	0.2096
194.6162	0.2489
194.8341	0.345
195.0519	0.2276
195.2697	0.2884
195.4875	0.315
195.7054	0.3173
195.9231	0.2408
196.1409	0.2894
196.3587	0.3415
196.5765	0.2957
196.7942	0.3286
197.012	0.3013
197.2297	0.3168
197.4474	0.4315
197.6651	0.2936
197.8828	0.4113
198.1005	0.3681
198.3182	0.3894
198.5358	0.3472
198.7535	0.3856
198.9711	0.4332
199.1888	0.376
199.4064	0.4564
199.624	0.4263
199.8416	0.3634
200.0592	0.4254
200.2767	0.4044
200.4943	0.4375
200.7119	0.3873
200.9294	0.4298
201.1469	0.4311
201.3645	0.4093
201.582	0.4413
201.7995	0.4162
202.017	0.3958
202.2344	0.4221
202.4519	0.4002
202.6694	0.3801
202.8868	0.4242
203.1042	0.3965
203.3217	0.3879
203.5391	0.4101
203.7565	0.3407
203.9739	0.3891
204.1913	0.3708
204.4086	0.3343
204.626	0.402
204.8433	0.3723
205.0607	0.3445
205.278	0.3445
205.4953	0.3331
205.7126	0.3509
205.9299	0.3334
206.1472	0.328
206.3644	0.3386
206.5817	0.3093
206.7989	0.3133
207.0162	0.3099
207.2334	0.3492
207.4506	0.2842
207.6678	0.3092
207.885	0.2972
208.1022	0.3235
208.3194	0.3101
208.5365	0.3011
208.7537	0.2885
208.9708	0.3003
209.1879	0.2798
209.405	0.2945
209.6222	0.2836
209.8392	0.2826
210.0563	0.2703
210.2734	0.2628
210.4905	0.2758
210.7075	0.2657
210.9245	0.2474
211.1416	0.2764
211.3586	0.2484
211.5756	0.2461
211.7926	0.2599
212.0096	0.2587
212.2265	0.2779
212.4435	0.2688
212.6604	0.2668
212.8774	0.2404
213.0943	0.2842
213.3112	0.2522
213.5281	0.2569
213.745	0.2438
213.9619	0.2477
214.1788	0.2623
214.3956	0.25
214.6125	0.2535
214.8293	0.2438
215.0461	0.2579
215.2629	0.2595
215.4798	0.234
215.6965	0.2399
215.9133	0.2417
216.1301	0.2308
216.3469	0.2635
216.5636	0.2381
216.7803	0.2408
216.9971	0.2507
217.2138	0.2396
217.4305	0.2515
217.6472	0.2571
217.8639	0.2493
218.0805	0.2491
218.2972	0.2483
218.5138	0.2664
218.7305	0.2498
218.9471	0.2295
219.1637	0.2723
219.3803	0.2573
219.5969	0.2552
219.8135	0.2631
220.0301	0.2622
220.2466	0.2566
220.4632	0.2484
220.6797	0.2581
220.8962	0.2598
221.1127	0.2633
221.3292	0.2671
221.5457	0.2664
221.7622	0.2722
221.9787	0.2812
222.1951	0.2613
222.4116	0.2766
222.628	0.2878
222.8444	0.2795
223.0608	0.2787
223.2772	0.2872
223.4936	0.2844
223.71	0.2804
223.9264	0.2827
224.1427	0.2857
224.3591	0.283
224.5754	0.2962
224.7917	0.2968
225.008	0.2935
225.2243	0.3104
225.4406	0.2863
225.6569	0.299
225.8732	0.3062
226.0894	0.3016
226.3057	0.3052
226.5219	0.3187
226.7381	0.3178
226.9543	0.3051
227.1705	0.3168
227.3867	0.3193
227.6029	0.3363
227.8191	0.33
228.0352	0.3346
228.2513	0.346
228.4675	0.3422
228.6836	0.344
228.8997	0.3314
229.1158	0.3546
229.3319	0.3555
229.548	0.3596
229.764	0.3539
229.9801	0.3649
230.1961	0.3625
230.4121	0.3622
230.6282	0.3794
230.8442	0.3843
231.0602	0.3858
231.2761	0.3768
231.4921	0.3961
231.7081	0.3921
231.924	0.3964
232.14	0.3969
232.3559	0.3997
232.5718	0.4136
232.7877	0.4053
233.0036	0.4193
233.2195	0.418
233.4353	0.4116
233.6512	0.421
233.867	0.4115
234.0829	0.4238
234.2987	0.4259
234.5145	0.4325
234.7303	0.4359
234.9461	0.4513
235.1619	0.4469
235.3776	0.4325
235.5934	0.4374
235.8091	0.4385
236.0249	0.4498
236.2406	0.4377
236.4563	0.4615
236.672	0.4395
236.8877	0.4525
237.1034	0.4346
237.319	0.4576
237.5347	0.4418
237.7503	0.4403
237.966	0.4657
238.1816	0.4615
238.3972	0.4642
238.6128	0.468
238.8284	0.4657
239.0439	0.4605
239.2595	0.4584
239.475	0.4587
239.6906	0.4656
239.9061	0.4582
240.1216	0.4566
240.3371	0.4636
240.5526	0.4511
240.7681	0.4628
240.9836	0.4544
241.199	0.463
241.4145	0.4541
241.6299	0.4472
241.8453	0.4379
242.0607	0.4322
242.2761	0.4407
242.4915	0.4174
242.7069	0.4136
242.9223	0.4231
243.1376	0.402
243.353	0.4018
243.5683	0.405
243.7836	0.3844
243.9989	0.3771
244.2142	0.3745
244.4295	0.371
244.6448	0.3593
244.86	0.3492
245.0753	0.3447
245.2905	0.3366
245.5057	0.3439
245.721	0.3409
245.9362	0.3216
246.1514	0.316
246.3665	0.3051
246.5817	0.3023
246.7969	0.2978
247.012	0.2917
247.2271	0.2892
247.4423	0.2833
247.6574	0.2798
247.8725	0.2692
248.0876	0.2694
248.3026	0.2662
248.5177	0.2551
248.7328	0.2476
248.9478	0.2573
249.1628	0.2454
249.3779	0.2444
249.5929	0.2351
249.8079	0.238
250.0228	0.2297
250.2378	0.2325
250.4528	0.2258
250.6677	0.2228
250.8827	0.2131
251.0976	0.2198
251.3125	0.2146
251.5274	0.21
251.7423	0.2162
251.9572	0.2079
252.172	0.1984
252.3869	0.2038
252.6017	0.2003
252.8166	0.1988
253.0314	0.1938
253.2462	0.1976
253.461	0.194
253.6758	0.1945
253.8906	0.1975
254.1053	0.192
254.3201	0.1917
254.5348	0.1838
254.7496	0.1858
254.9643	0.1928
255.179	0.1806
255.3937	0.1864
255.6083	0.1941
255.823	0.1854
256.0377	0.1821
256.2523	0.179
256.467	0.1877
256.6816	0.1782
256.8962	0.1817
257.1108	0.1835
257.3254	0.1811
257.54	0.1812
257.7545	0.1834
257.9691	0.1787
258.1836	0.173
258.3981	0.1796
258.6127	0.1727
258.8272	0.1833
259.0417	0.1721
259.2561	0.1735
259.4706	0.172
259.6851	0.1758
259.8995	0.1727
260.114	0.1738
260.3284	0.1703
260.5428	0.1725
260.7572	0.1785
260.9716	0.1748
261.186	0.1737
261.4003	0.173
261.6147	0.176
261.829	0.177
262.0433	0.1765
262.2577	0.1763
262.472	0.1767
262.6863	0.1797
262.9005	0.1804
263.1148	0.1784
263.3291	0.1769
263.5433	0.1731
263.7576	0.1813
263.9718	0.1757
264.186	0.1776
264.4002	0.1787
264.6144	0.1853
264.8286	0.1828
265.0427	0.1846
265.2569	0.1802
265.471	0.1785
265.6851	0.1835
265.8993	0.1777
266.1134	0.183
266.3275	0.1811
266.5415	0.1784
266.7556	0.1824
266.9697	0.1882
267.1837	0.1834
267.3978	0.1832
267.6118	0.1773
267.8258	0.1828
268.0398	0.1863
268.2538	0.1828
268.4677	0.176
268.6817	0.1804
268.8957	0.1703
269.1096	0.1724
269.3235	0.177
269.5374	0.1736
269.7514	0.1781
269.9652	0.1775
270.1791	0.1737
270.393	0.1763
270.6068	0.1752
270.8207	0.1751
271.0345	0.1728
271.2483	0.1705
271.4622	0.168
271.676	0.1725
271.8897	0.175
272.1035	0.1748
272.3173	0.1738
272.531	0.1735
272.7448	0.1711
272.9585	0.1649
273.1722	0.1707
273.3859	0.1764
273.5996	0.1731
273.8133	0.1771
274.0269	0.1704
274.2406	0.1726
274.4542	0.1765
274.6679	0.1722
274.8815	0.1786
275.0951	0.1769
275.3087	0.1813
275.5223	0.1762
275.7358	0.18
275.9494	0.179
276.1629	0.1768
276.3765	0.1743
276.59	0.175
276.8035	0.1799
277.017	0.1785
277.2305	0.181
277.444	0.1785
277.6574	0.1782
277.8709	0.1851
278.0843	0.1771
278.2978	0.1869
278.5112	0.1831
278.7246	0.1783
278.938	0.1774
279.1513	0.1811
279.3647	0.1792
279.5781	0.1774
279.7914	0.181
280.0047	0.1803
280.2181	0.1771
280.4314	0.1789
280.6447	0.1869
280.8579	0.1732
281.0712	0.1845
281.2845	0.1718
281.4977	0.1852
281.711	0.1808
281.9242	0.1832
282.1374	0.19
282.3506	0.1839
282.5638	0.1815
282.7769	0.1777
282.9901	0.1824
283.2033	0.1822
283.4164	0.1786
283.6295	0.1865
283.8426	0.1775
284.0557	0.1913
284.2688	0.1837
284.4819	0.1753
284.695	0.1883
284.908	0.1858
285.1211	0.1862
285.3341	0.1811
285.5471	0.1887
285.7601	0.183
285.9731	0.1819
286.1861	0.1894
286.3991	0.1888
286.612	0.1908
286.825	0.1857
287.0379	0.185
287.2508	0.1907
287.4637	0.1906
287.6766	0.1914
287.8895	0.1901
288.1024	0.1889
288.3152	0.1893
288.5281	0.1877
288.7409	0.1901
288.9538	0.1914
289.1666	0.191
289.3794	0.1898
289.5922	0.1818
289.8049	0.1955
290.0177	0.1923
290.2304	0.1862
290.4432	0.184
290.6559	0.1906
290.8686	0.1907
291.0813	0.1916
291.294	0.1918
291.5067	0.1877
291.7194	0.1893
291.932	0.1884
292.1447	0.1914
292.3573	0.1961
292.5699	0.1912
292.7825	0.1859
292.9951	0.1937
293.2077	0.1871
293.4203	0.195
293.6328	0.1893
293.8454	0.193
294.0579	0.1922
294.2704	0.1972
294.4829	0.1899
294.6954	0.1903
294.9079	0.1886
295.1204	0.188
295.3328	0.1905
295.5453	0.1947
295.7577	0.1914
295.9701	0.1962
296.1825	0.1914
296.3949	0.193
296.6073	0.1883
296.8197	0.1934
297.0321	0.1922
297.2444	0.1899
297.4567	0.1958
297.6691	0.1908
297.8814	0.1932
298.0937	0.1881
298.306	0.1914
298.5182	0.1969
298.7305	0.1959
298.9428	0.1881
299.155	0.1855
299.3672	0.1886
299.5794	0.1869
299.7916	0.1919
300.0038	0.1909
300.216	0.1925
300.4282	0.186
300.6403	0.1949
300.8525	0.1893
301.0646	0.1879
301.2767	0.189
301.4888	0.1814
301.7009	0.1915
301.913	0.1979
302.125	0.1927
302.3371	0.1893
302.5491	0.1963
302.7612	0.1957
302.9732	0.197
303.1852	0.1959
303.3972	0.1905
303.6092	0.1924
303.8211	0.1906
304.0331	0.1841
304.245	0.187
304.457	0.1926
304.6689	0.1831
304.8808	0.1878
305.0927	0.19
305.3046	0.1816
305.5164	0.1829
305.7283	0.1809
305.9401	0.1746
306.152	0.1824
306.3638	0.1815
306.5756	0.1831
306.7874	0.1766
306.9992	0.1752
307.2109	0.1714
307.4227	0.172
307.6344	0.177
307.8462	0.1677
308.0579	0.1713
308.2696	0.1706
308.4813	0.1671
308.693	0.1595
308.9046	0.1684
309.1163	0.1636
309.328	0.1583
309.5396	0.1508
309.7512	0.1539
309.9628	0.1558
310.1744	0.1486
310.386	0.1499
310.5976	0.1485
310.8091	0.148
311.0207	0.1502
311.2322	0.1441
311.4437	0.1441
311.6552	0.1472
311.8667	0.1445
312.0782	0.1421
312.2897	0.1462
312.5012	0.1384
312.7126	0.1364
312.924	0.1415
313.1355	0.1329
313.3469	0.1321
313.5583	0.1349
313.7696	0.1305
313.981	0.1351
314.1924	0.1318
314.4037	0.132
314.6151	0.1311
314.8264	0.13
315.0377	0.1321
315.249	0.1381
315.4603	0.1274
315.6716	0.1287
315.8828	0.1276
316.0941	0.1323
316.3053	0.1192
316.5165	0.1339
316.7277	0.1218
316.9389	0.1308
317.1501	0.1205
317.3613	0.1228
317.5724	0.1241
317.7836	0.1212
317.9947	0.1274
318.2058	0.1218
318.417	0.1192
318.6281	0.1215
318.8391	0.1219
319.0502	0.1231
319.2613	0.1268
319.4723	0.119
319.6834	0.1255
319.8944	0.1208
320.1054	0.1261
320.3164	0.1252
320.5274	0.1167
320.7383	0.1229
320.9493	0.1249
321.1602	0.1277
321.3712	0.1247
321.5821	0.1238
321.793	0.1351
322.0039	0.1266
322.2148	0.1265
322.4257	0.1195
322.6365	0.1228
322.8474	0.1286
323.0582	0.1252
323.269	0.1277
323.4798	0.1262
323.6906	0.1181
323.9014	0.1239
324.1122	0.1196
324.3229	0.1286
324.5337	0.1226
324.7444	0.1262
324.9551	0.1304
325.1658	0.12
325.3765	0.133
325.5872	0.1259
325.7979	0.129
326.0085	0.1263
326.2192	0.1262
326.4298	0.1283
326.6404	0.1328
326.851	0.1286
327.0616	0.132
327.2722	0.1333
327.4828	0.1318
327.6933	0.1372
327.9039	0.1291
328.1144	0.1274
328.3249	0.134
328.5354	0.1293
328.7459	0.1286
328.9564	0.1294
329.1669	0.1283
329.3773	0.1352
329.5878	0.1288
329.7982	0.1314
330.0086	0.1323
330.219	0.1304
330.4294	0.1247
330.6398	0.1331
330.8502	0.1391
331.0605	0.1324
331.2708	0.13
331.4812	0.1275
331.6915	0.135
331.9018	0.1329
332.1121	0.1364
332.3224	0.1352
332.5326	0.1268
332.7429	0.1372
332.9531	0.1375
333.1633	0.1279
333.3735	0.1292
333.5837	0.1371
333.7939	0.1307
334.0041	0.1369
334.2143	0.1307
334.4244	0.145
334.6346	0.1313
334.8447	0.1332
335.0548	0.1358
335.2649	0.1407
335.475	0.1395
335.685	0.1347
335.8951	0.1347
336.1051	0.1379
336.3152	0.1434
336.5252	0.1367
336.7352	0.1375
336.9452	0.142
337.1552	0.1374
337.3652	0.1315
337.5751	0.1404
337.7851	0.1388
337.995	0.1421
338.2049	0.1341
338.4148	0.1397
338.6247	0.1438
338.8346	0.1383
339.0445	0.1365
339.2543	0.1404
339.4642	0.141
339.674	0.1397
339.8838	0.1421
340.0936	0.1392
340.3034	0.1444
340.5132	0.1345
340.7229	0.1481
340.9327	0.1503
341.1424	0.1481
341.3522	0.1377
341.5619	0.1457
341.7716	0.1538
341.9813	0.1495
342.1909	0.1451
342.4006	0.1506
342.6102	0.1505
342.8199	0.1523
343.0295	0.1478
343.2391	0.1455
343.4487	0.1515
343.6583	0.1596
343.8679	0.147
344.0774	0.1493
344.287	0.1548
344.4965	0.1561
344.706	0.1601
344.9155	0.1559
345.125	0.1518
345.3345	0.1582
345.544	0.1577
345.7534	0.1547
345.9629	0.158
346.1723	0.1563
346.3817	0.1619
346.5911	0.1607
346.8005	0.1614
347.0099	0.1674
347.2193	0.1593
347.4286	0.1671
347.638	0.1638
347.8473	0.1682
348.0566	0.1654
348.2659	0.1691
348.4752	0.1655
348.6845	0.1734
348.8937	0.1717
349.103	0.163
349.3122	0.1681
349.5214	0.1706
349.7306	0.1771
349.9398	0.1669
350.149	0.1685
350.3582	0.1729
350.5674	0.1737
350.7765	0.1697
350.9856	0.1694
351.1948	0.1821
351.4039	0.1772
351.613	0.1719
351.822	0.1815
352.0311	0.1741
352.2402	0.1754
352.4492	0.1767
352.6582	0.1798
352.8672	0.1792
353.0762	0.1843
353.2852	0.1748
353.4942	0.186
353.7032	0.1816
353.9121	0.1802
354.1211	0.1815
354.33	0.1869
354.5389	0.1808
354.7478	0.1864
354.9567	0.1824
355.1655	0.1843
355.3744	0.1835
355.5833	0.1868
355.7921	0.1941
356.0009	0.1807
356.2097	0.1728
356.4185	0.1889
356.6273	0.1935
356.8361	0.1909
357.0448	0.1881
357.2536	0.1842
357.4623	0.1862
357.671	0.1905
357.8797	0.1881
358.0884	0.1891
358.2971	0.1968
358.5057	0.1927
358.7144	0.1937
358.923	0.192
359.1316	0.1937
359.3402	0.2042
359.5488	0.1944
359.7574	0.1974
359.966	0.1999
360.1746	0.1973
360.3831	0.2068
360.5916	0.2068
360.8002	0.2088
361.0087	0.2026
361.2172	0.2082
361.4256	0.2024
361.6341	0.2142
361.8426	0.213
362.051	0.2106
362.2594	0.2118
362.4678	0.2186
362.6762	0.2096
362.8846	0.2063
363.093	0.2124
363.3014	0.2093
363.5097	0.2131
363.718	0.2146
363.9264	0.2171
364.1347	0.2152
364.343	0.2229
364.5513	0.2179
364.7595	0.2302
364.9678	0.2161
365.176	0.2312
365.3842	0.2244
365.5925	0.2209
365.8007	0.2302
366.0089	0.2337
366.217	0.2287
366.4252	0.2276
366.6333	0.2333
366.8415	0.2331
367.0496	0.2297
367.2577	0.2298
367.4658	0.2351
367.6739	0.2318
367.882	0.2397
368.09	0.2348
368.2981	0.2455
368.5061	0.2435
368.7141	0.2362
368.9221	0.2534
369.1301	0.2405
369.3381	0.2458
369.5461	0.2419
369.754	0.2513
369.962	0.2348
370.1699	0.2492
370.3778	0.2545
370.5857	0.2436
370.7936	0.2486
371.0015	0.2532
371.2093	0.2503
371.4172	0.2555
371.625	0.2459
371.8328	0.2423
372.0406	0.2573
372.2484	0.25
372.4562	0.2533
372.664	0.2573
372.8717	0.2613
373.0795	0.2703
373.2872	0.2637
373.4949	0.266
373.7026	0.251
373.9103	0.2602
374.118	0.2663
374.3256	0.2614
374.5333	0.2617
374.7409	0.266
374.9485	0.2668
375.1561	0.2711
375.3637	0.2728
375.5713	0.2723
375.7789	0.2674
375.9864	0.2747
376.194	0.2778
376.4015	0.2659
376.609	0.2721
376.8165	0.2837
377.024	0.2693
377.2315	0.2698
377.4389	0.2731
377.6464	0.2816
377.8538	0.275
378.0612	0.2802
378.2686	0.283
378.476	0.281
378.6834	0.2757
378.8908	0.2839
379.0981	0.2834
379.3055	0.2794
379.5128	0.2714
379.7201	0.2847
379.9274	0.2846
380.1347	0.2823
380.342	0.2838
380.5492	0.29
380.7565	0.2859
380.9637	0.2864
381.1709	0.2868
381.3781	0.3023
381.5853	0.2841
381.7925	0.2888
381.9997	0.2918
382.2068	0.2939
382.4139	0.2817
382.6211	0.2975
382.8282	0.3004
383.0353	0.2937
383.2424	0.2906
383.4494	0.2949
383.6565	0.2917
383.8635	0.299
384.0706	0.2989
384.2776	0.2995
384.4846	0.2979
384.6916	0.294
384.8986	0.2996
385.1055	0.3089
385.3125	0.3113
385.5194	0.3086
385.7263	0.2922
385.9333	0.3048
386.1402	0.3046
386.347	0.2958
386.5539	0.3064
386.7608	0.2956
386.9676	0.3029
387.1744	0.3005
387.3813	0.2942
387.5881	0.2905
387.7948	0.295
388.0016	0.3124
388.2084	0.308
388.4151	0.2952
388.6219	0.2931
388.8286	0.3082
389.0353	0.2971
389.242	0.3055
389.4487	0.2886
389.6553	0.2895
389.862	0.289
390.0686	0.2979
390.2753	0.2979
390.4819	0.2971
390.6885	0.2911
390.8951	0.2899
391.1016	0.2928
391.3082	0.2851
391.5147	0.2777
391.7213	0.2814
391.9278	0.289
392.1343	0.2917
392.3408	0.2832
392.5473	0.281
392.7537	0.282
392.9602	0.2764
393.1666	0.282
393.373	0.2751
393.5794	0.2736
393.7858	0.2843
393.9922	0.2624
394.1986	0.2774
394.4049	0.2737
394.6113	0.2749
394.8176	0.2764
395.0239	0.268
395.2302	0.2675
395.4365	0.2701
395.6428	0.2587
395.8491	0.2704
396.0553	0.2597
396.2615	0.267
396.4678	0.2624
396.674	0.2459
396.8802	0.2695
397.0863	0.2608
397.2925	0.2603
397.4987	0.2569
397.7048	0.2585
397.9109	0.2568
398.117	0.2611
398.3231	0.2445
398.5292	0.2507
398.7353	0.2559
398.9413	0.2455
399.1474	0.2594
399.3534	0.2539
399.5594	0.2534
399.7654	0.2584
399.9714	0.2524
400.1774	0.2438
400.3833	0.2533
400.5893	0.2539
400.7952	0.2604
401.0011	0.252
401.207	0.2526
401.4129	0.2507
401.6188	0.256
401.8247	0.2546
402.0305	0.2456
402.2364	0.2549
402.4422	0.2577
402.648	0.2533
402.8538	0.2591
403.0596	0.2485
403.2654	0.2578
403.4711	0.2505
403.6768	0.2489
403.8826	0.2533
404.0883	0.2485
404.294	0.2532
404.4997	0.2484
404.7054	0.2673
404.911	0.2436
405.1167	0.2586
405.3223	0.2597
405.5279	0.251
405.7335	0.257
405.9391	0.2515
406.1447	0.2561
406.3502	0.2529
406.5558	0.2548
406.7613	0.254
406.9668	0.2503
407.1724	0.2534
407.3778	0.2624
407.5833	0.2432
407.7888	0.2552
407.9942	0.248
408.1997	0.2547
408.4051	0.2536
408.6105	0.2643
408.8159	0.2644
409.0213	0.2445
409.2267	0.2601
409.432	0.2597
409.6374	0.2486
409.8427	0.2587
410.048	0.2617
410.2533	0.2581
410.4586	0.2417
410.6639	0.2514
410.8691	0.2495
411.0744	0.258
411.2796	0.2459
411.4848	0.2493
411.69	0.2504
411.8952	0.2486
412.1004	0.251
412.3056	0.2422
412.5107	0.2551
412.7158	0.2511
412.921	0.2575
413.1261	0.2469
413.3312	0.2516
413.5362	0.2596
413.7413	0.2524
413.9464	0.2383
414.1514	0.2343
414.3564	0.2508
414.5614	0.248
414.7664	0.2361
414.9714	0.2479
415.1764	0.2544
415.3813	0.2475
415.5863	0.2537
415.7912	0.2558
415.9961	0.2513
416.201	0.2565
416.4059	0.2386
416.6108	0.2463
416.8156	0.2504
417.0205	0.2584
417.2253	0.2393
417.4301	0.254
417.6349	0.2348
417.8397	0.2423
418.0445	0.2324
418.2492	0.2489
418.454	0.2447
418.6587	0.25
418.8634	0.2346
419.0681	0.2413
419.2728	0.2446
419.4775	0.2528
419.6822	0.2356
419.8868	0.2381
420.0915	0.2327
420.2961	0.2294
420.5007	0.233
420.7053	0.2442
420.9099	0.2369
421.1144	0.2287
421.319	0.2375
421.5235	0.2286
421.728	0.2395
421.9325	0.2259
422.137	0.2281
422.3415	0.2303
422.546	0.2248
422.7504	0.2288
422.9549	0.235
423.1593	0.2292
423.3637	0.22
423.5681	0.2256
423.7725	0.2253
423.9769	0.2253
424.1812	0.2129
424.3856	0.2136
424.5899	0.2266
424.7942	0.2201
424.9985	0.2199
425.2028	0.2192
425.4071	0.2165
425.6113	0.211
425.8156	0.2211
426.0198	0.2202
426.224	0.2147
426.4282	0.2134
426.6324	0.21
426.8366	0.206
427.0407	0.2104
427.2449	0.2071
427.449	0.2076
427.6531	0.2177
427.8572	0.2095
428.0613	0.2063
428.2654	0.2054
428.4694	0.1988
428.6735	0.1949
428.8775	0.1955
429.0815	0.198
429.2855	0.2049
429.4895	0.1951
429.6935	0.1921
429.8975	0.1925
430.1014	0.1906
430.3053	0.1986
430.5093	0.1846
430.7132	0.1809
430.9171	0.1802
431.1209	0.1861
431.3248	0.1741
431.5286	0.1736
431.7325	0.1876
431.9363	0.1742
432.1401	0.179
432.3439	0.1768
432.5477	0.1746
432.7514	0.1642
432.9552	0.1637
433.1589	0.1608
433.3627	0.1694
433.5664	0.1614
433.7701	0.1642
433.9737	0.1672
434.1774	0.153
434.3811	0.1509
434.5847	0.1538
434.7883	0.1591
434.9919	0.1519
435.1955	0.1526
435.3991	0.1577
435.6027	0.1457
435.8062	0.1604
436.0098	0.1474
436.2133	0.1479
436.4168	0.1432
436.6203	0.1343
436.8238	0.1405
437.0272	0.137
437.2307	0.1208
437.4341	0.1326
437.6375	0.1353
437.841	0.1172
438.0443	0.1315
438.2477	0.1258
438.4511	0.1146
438.6545	0.1182
438.8578	0.1187
439.0611	0.1173
439.2644	0.1194
439.4677	0.1154
439.671	0.106
439.8743	0.1102
440.0775	0.1153
440.2808	0.1027
440.484	0.1107
440.6872	0.1029
440.8904	0.0957
441.0936	0.0969
441.2967	0.0916
441.4999	0.0953
441.703	0.0949
441.9062	0.096
442.1093	0.1071
442.3124	0.0936
442.5155	0.0975
442.7185	0.0868
442.9216	0.0921
443.1246	0.0946
443.3276	0.083
443.5307	0.08
443.7337	0.0831
443.9366	0.0737
444.1396	0.0778
444.3426	0.077
444.5455	0.0819
444.7484	0.0708
444.9513	0.0776
445.1542	0.0745
445.3571	0.0723
445.56	0.0702
445.7628	0.0789
445.9657	0.0691
446.1685	0.0716
446.3713	0.0759
446.5741	0.0706
446.7769	0.071
446.9797	0.0634
447.1824	0.067
447.3852	0.0597
447.5879	0.0586
447.7906	0.0561
447.9933	0.0639
448.196	0.0565
448.3986	0.0546
448.6013	0.0488
448.8039	0.0601
449.0066	0.0684
449.2092	0.0548
449.4118	0.0488
449.6143	0.0546
449.8169	0.0563
450.0195	0.0566
450.222	0.054
450.4245	0.0507
450.627	0.0462
450.8295	0.0427
451.032	0.0502
451.2345	0.0386
451.4369	0.0404
451.6394	0.0416
451.8418	0.0409
452.0442	0.0426
452.2466	0.0317
452.449	0.0441
452.6513	0.0315
452.8537	0.0334
453.056	0.0341
453.2583	0.0394
453.4607	0.0239
453.663	0.0386
453.8652	0.0238
454.0675	0.0359
454.2697	0.0315
454.472	0.0339
454.6742	0.0378
454.8764	0.0331
455.0786	0.0343
455.2808	0.0208
455.4829	0.0336
455.6851	0.0284
455.8872	0.0172
456.0893	0.0252
456.2915	0.0243
456.4935	0.0356
456.6956	0.0258
456.8977	0.0268
457.0997	0.0276
457.3018	0.0202
457.5038	0.0307
457.7058	0.0282
457.9078	0.0176
458.1098	0.0216
458.3117	0.0315
458.5137	0.0083
458.7156	0.0262
458.9175	0.0182
459.1194	0.0184
459.3213	0.0215
459.5232	0.0249
459.725	0.0228
459.9269	0.0121
460.1287	0.0145
460.3305	0.0151
460.5323	0.0244
460.7341	0.0188
460.9359	0.0121
461.1376	0.0207
461.3394	0.0214
461.5411	0.0157
461.7428	0.0155
461.9445	0.0111
462.1462	0.0115
462.3479	0.0021
462.5495	0.0151
462.7512	0.0328
462.9528	0.0142
463.1544	0.0087
463.356	0.0036
463.5576	0.0204
463.7592	0.0156
463.9607	0.0067
464.1623	0.0151
464.3638	0.0093
464.5653	0.0148
464.7668	0.0177
464.9683	0.0171
465.1697	0.0124
465.3712	0.0015
465.5726	0.013
465.7741	0.0164
465.9755	0.0169
466.1769	0.0066
466.3782	0.0133
466.5796	0.0134
466.7809	0.0098
466.9823	0.01
467.1836	0.0153
467.3849	0.0119
467.5862	0.0076
467.7875	0.0127
467.9887	0.0083
468.19	0.0106
468.3912	0.0136
468.5924	0.0023
468.7936	0.0109
468.9948	0.0008
469.196	0.0094
469.3972	0.0056
469.5983	-0.0005
469.7994	0.0115
470.0006	0.0191
470.2017	0.0123
470.4027	0.0209
470.6038	0.0085
470.8049	0.0067
471.0059	0.0193
471.2069	0.0086
471.408	0.0149
471.6089	0.0072
471.8099	0.0107
472.0109	0.0078
472.2119	0.0118
472.4128	0.001
472.6137	0.0127
472.8146	0.0137
473.0155	0.0201
473.2164	0.0154
473.4173	0.0022
473.6181	0.004
473.819	0.0022
474.0198	0.0031
474.2206	-0.0006
474.4214	0.0076
474.6222	-0.0044
474.8229	0.0085
475.0237	0.0156
475.2244	0.0117
475.4251	0.0091
475.6258	0.0103
475.8265	0.0086
476.0272	-0.0028
476.2278	0.0099
476.4285	0.0059
476.6291	0.0069
476.8297	0.0051
477.0303	0.0073
477.2309	0.0076
477.4315	0.0088
477.632	-0.0019
477.8326	0.0113
478.0331	0.0105
478.2336	0.0014
478.4341	0.0125
478.6346	0.0033
478.8351	0.0051
479.0355	0.0133
479.236	0.0126
479.4364	0.0068
479.6368	0.0034
479.8372	0.0137
480.0376	0.0105
480.2379	0.0042
480.4383	0.0118
480.6386	-0.0056
480.8389	0.0069
481.0392	0.0111
481.2395	0.0111
481.4398	0.0129
481.6401	0.0081
481.8403	0.0079
482.0405	0.0024
482.2408	0.0037
482.441	0.0067
482.6411	0.008
482.8413	-0.0025
483.0415	0.0094
483.2416	0.0073
483.4417	0.0036
483.6419	-0.002
483.8419	-0.0002
484.042	-0.0002
484.2421	-0.002
484.4422	0.0094
484.6422	0.0066
484.8422	0.006
485.0422	0.0066
485.2422	0.0042
485.4422	0.0044
485.6422	0.003
485.8421	0.0082
486.042	0.0114
486.242	0.0013
486.4419	0.0112
486.6417	0.0039
486.8416	0.0051
487.0415	0.0006
487.2413	-0.0036
487.4411	0.0063
487.641	0.0036
487.8408	0.0065
488.0405	0.0053
488.2403	-0.0003
488.4401	0.0063
488.6398	0.0009
488.8395	0.0044
489.0392	0.0032
489.2389	0.0111
489.4386	-0.0037
489.6383	0.0079
489.8379	0.0065
490.0376	0.006
490.2372	-0.0035
490.4368	0.01
490.6364	0.0001
490.836	0.0015
491.0355	0.0023
491.2351	0.0005
491.4346	0.0072
491.6341	-0.004
491.8336	0.0078
492.0331	0.0019
492.2326	0.0077
492.432	0.0079
492.6315	0.0146
492.8309	0.0126
493.0303	0.0028
493.2297	0.0086
493.4291	0.0033
493.6284	0.0054
493.8278	0.0035
494.0271	0.006
494.2264	0.007
494.4257	0.0099
494.625	0.0011
494.8243	-0.0034
495.0236	0.0027
495.2228	0.009
495.422	0.0064
495.6213	0.0075
495.8205	0.0038
496.0196	0.0073
496.2188	0.0081
496.418	0.0017
496.6171	-0.0052
496.8162	0.0057
497.0153	0.0111
497.2144	0.01
497.4135	0.0054
497.6126	0.0055
497.8116	-0.0023
498.0107	0.0033
498.2097	0.0093
498.4087	-0.0031
498.6077	0.0009
498.8067	0.0056
499.0056	0.0012
499.2046	0.0138
499.4035	0.0091
499.6024	-0.0081
499.8013	0.0085
500.0002	0.0089
500.199	0.0133
500.3979	-0.0018
500.5967	-0.0003
500.7956	0.007
500.9944	-0.0004
501.1932	0.0123
501.3919	0.0056
501.5907	0.0109
501.7895	0.0029
501.9882	0.0064
502.1869	0.012
502.3856	0.007
502.5843	0.0033
502.783	0.0069
502.9816	0.0124
503.1803	0.0033
503.3789	0.0101
503.5775	0.0049
503.7761	0.0001
503.9747	0.0122
504.1732	-0.0007
504.3718	0.011
504.5703	-0.0002
504.7689	-0.0127
504.9674	0.0005
505.1658	-0.0016
505.3643	0.0107
505.5628	0.0064
505.7612	0.0138
505.9597	-0.0013
506.1581	0.001
506.3565	0.0011
506.5549	-0.0041
506.7532	-0.0041
506.9516	0.0062
507.1499	-0.0018
507.3482	-0.0041
507.5465	0.0004
507.7448	0.0041
507.9431	-0.0002
508.1414	0.0009
508.3396	0.0058
508.5379	0.0069
508.7361	0.0142
508.9343	0.0075
509.1325	0.0108
509.3306	-0.0016
509.5288	0.0032
509.7269	0.009
509.9251	0.0071
510.1232	0.0051
510.3213	0.0185
510.5193	0.0064
510.7174	-0.0001
510.9154	0.0185
511.1135	0.0034
511.3115	0.0081
511.5095	0.0013
511.7075	0.0024
511.9055	0.0109
512.1034	0.0065
512.3014	0.0075
512.4993	0.0166
512.6972	0.0084
512.8951	0.008
513.093	-0.0063
513.2908	0.0154
513.4887	0.0003
513.6865	0.0092
513.8844	0.004
514.0822	0.0087
514.2799	0.0034
514.4777	0.004
514.6755	0.0016
514.8732	0.0027
515.0709	-0.007
515.2687	0.0002
515.4664	0.0127
515.664	0.0107
515.8617	0.0071
516.0594	0.008
516.257	0.0104
516.4546	0.0195
516.6522	0.004
516.8498	0.006
517.0474	0.0017
517.2449	0.0077
517.4425	0.0075
517.64	0.0052
517.8375	0.0128
518.035	0.0013
518.2325	-0.0027
518.43	-0.0006
518.6274	0.0014
518.8249	-0.0057
519.0223	0.0127
519.2197	0.0037
519.4171	-0.006
519.6145	0.0139
519.8118	-0.0072
520.0092	-0.0048
520.2065	0.0085
520.4038	0.0019
520.6011	0.0114
520.7984	0.0003
520.9956	0.0189
521.1929	0.0053
521.3901	-0.0015
521.5874	0.0075
521.7846	0.0075
521.9818	-0.0034
522.1789	0.0034
522.3761	0.0151
522.5732	0.0064
522.7704	-0.0012
522.9675	0
523.1646	0.0044
523.3617	0.0095
523.5587	0.007
523.7558	0.0053
523.9528	0.0079
524.1498	0.0044
524.3468	0.0086
524.5438	0.0015
524.7408	0.0112
524.9378	0.0122
525.1347	0.0081
525.3316	-0.001
525.5285	0.0084
525.7254	0.0051
525.9223	0.0081
526.1192	0.0027
526.316	0.0128
526.5129	0.0066
526.7097	0.0024
526.9065	0.0221
527.1033	0.0091
527.3	0.0067
527.4968	0.0094
527.6935	-0.0034
527.8903	0.0066
528.087	-0.0078
528.2837	0.0182
528.4804	0.0009
528.677	0.0101
528.8737	0.0044
529.0703	-0.0002
529.2669	0.0109
529.4635	0.0044
529.6601	0.0073
529.8567	0.0015
530.0532	0.0005
530.2498	0.0041
530.4463	-0.0013
530.6428	0.0012
530.8393	0.0142
531.0358	0.0027
531.2322	-0.0056
531.4287	0.0004
531.6251	-0.0098
531.8215	0.0032
532.0179	0.0058
532.2143	0.0004
532.4107	0.0135
532.607	0.0033
532.8034	0.001
532.9997	-0.005
533.196	-0.0036
533.3923	0.0062
533.5886	0.0139
533.7848	0.0077
533.9811	0.0162
534.1773	0.0039
534.3735	0.0127
534.5697	0.0065
534.7659	0.0035
534.9621	0.0058
535.1582	0.011
535.3544	0.0058
535.5505	0.0106
535.7466	0.0174
535.9427	-0.0029
536.1387	-0.0011
536.3348	0.0125
536.5308	0.0004
536.7269	-0.0061
536.9229	0.0071
537.1189	0.0032
537.3148	0.0099
537.5108	0.0142
537.7068	0.0105
537.9027	-0.0018
538.0986	0.019
538.2945	-0.0028
538.4904	0.0005
538.6863	0.0021
538.8821	0.0142
539.078	0.0095
539.2738	0.0053
539.4696	0.001
539.6654	0.0042
539.8611	0.0044
540.0569	0.0016
540.2526	0.0122
540.4484	-0.0044
540.6441	0.0018
540.8398	0.0077
541.0355	0.0081
541.2311	0.0051
541.4268	0.0064
541.6224	0.0176
541.818	0.0053
542.0136	0.0115
542.2092	0.0131
542.4048	0.0056
542.6003	-0.0003
542.7959	-0.0062
542.9914	0.007
543.1869	0.0066
543.3824	0.0085
543.5779	0.0136
543.7734	0.0163
543.9688	0.0049
544.1642	0.0023
544.3596	0.0051
544.555	-0.0005
544.7504	0.0142
544.9458	0.0044
545.1411	0.0039
545.3365	0.0021
545.5318	0.012
545.7271	0.0179
545.9224	0.0005
546.1177	0.0078
546.3129	-0.0012
546.5081	0.007
546.7034	0.0025
546.8986	0.0084
547.0938	0.0107
547.289	0.0146
547.4841	0.0058
547.6793	0.0004
547.8744	0.0102
548.0695	0.0038
548.2646	0.004
548.4597	0.0011
548.6548	0.0146
548.8498	-0.0008
549.0448	0.0056
549.2399	0.0103
549.4349	-0.0018
549.6298	0.0093
549.8248	0.0115
550.0198	0.0052
550.2147	0.0064
550.4096	-0.0087
550.6045	0.0086
550.7994	0.0086
550.9943	0.0064
551.1892	-0.0065
551.384	0.0108
551.5788	0.0076
551.7737	0.0141
551.9685	0.0065
552.1632	-0.0051
552.358	0.0067
552.5528	0.0149
552.7475	0.0039
552.9422	0.0065
553.1369	0.0128
553.3316	0.0059
553.5263	0.0103
553.7209	0.0007
553.9156	0.0139
554.1102	0.0087
554.3048	-0.005
554.4994	0.0018
554.694	0.0015
554.8885	0.0096
555.0831	0.0134
555.2776	0.016
555.4721	0.0062
555.6666	0.0097
555.8611	0.016
556.0555	0.0048
556.25	0.0157
556.4444	-0.0039
556.6388	-0.0004
556.8332	0.0066
557.0276	0.011
557.222	0.0074
557.4163	0.0125
557.6107	0.005
557.805	0.0103
557.9993	0.0103
558.1936	0.0052
558.3879	0.0089
558.5821	0.0049
558.7764	0.0037
558.9706	0.0018
559.1648	0.0048
559.359	0.0035
559.5532	0.0002
559.7473	-0.0029
559.9415	0.0086
560.1356	0.021
560.3297	-0.0003
560.5238	0.0074
560.7179	0.0008
560.9119	0.0093
561.106	-0.0012
561.3	0.0016
561.494	-0.0125
561.688	-0.001
561.882	0.0046
562.076	0.0101
562.2699	0.0057
562.4639	0.0183
562.6578	0.0055
562.8517	0.0011
563.0456	0.0024
563.2395	0.0147
563.4333	0.0042
563.6272	0.0037
563.821	-0.0001
564.0148	0.002
564.2086	0.0014
564.4024	0.0052
564.5961	0.0147
564.7899	0.0037
564.9836	0.0088
565.1773	0.0073
565.371	0.0031
565.5647	0.0088
565.7584	0.0131
565.952	0.0043
566.1456	-0.0005
566.3393	0.0073
566.5329	0.0063
566.7264	0.0126
566.92	0.0072
567.1136	0.0013
567.3071	-0.0037
567.5006	0.0069
567.6941	0.01
567.8876	-0.0034
568.0811	0.0227
568.2745	0.0017
568.468	0.0039
568.6614	0.011
568.8548	0.0068
569.0482	0.0091
569.2416	0.0063
569.4349	0.0045
569.6283	0.0007
569.8216	0.0109
570.0149	0.0009
570.2082	0.0096
570.4015	0.0046
570.5947	0.0054
570.788	0.0063
570.9812	-0.0006
571.1744	0.0058
571.3676	0.0046
571.5608	0.003
571.754	0.0094
571.9471	0.0095
572.1402	0.0034
572.3333	0.0071
572.5264	0.003
572.7195	0.006
572.9126	0.0001
573.1057	0.0073
573.2987	0.0052
573.4917	0.0032
573.6847	0.0011
573.8777	0.0126
574.0707	0.0061
574.2636	0.0069
574.4566	0.0002
574.6495	-0.0003
574.8424	0.0057
575.0353	0.007
575.2281	0.0033
575.421	0.0015
575.6138	0.0063
575.8067	0.0061
575.9995	0.0019
576.1923	0.0089
576.385	0.0122
576.5778	0.0101
576.7706	0.0026
576.9633	0.0059
577.156	-0.0005
577.3487	0.0039
577.5414	0.0019
577.734	0.0005
577.9267	0.0063
578.1193	0.0077
578.3119	0.0068
578.5045	0.004
578.6971	0.0031
578.8897	0.0033
579.0822	0.0062
579.2747	-0
579.4673	0.0055
579.6598	0.009
579.8522	0.0064
580.0447	0.0091
580.2372	0.0078
580.4296	0.0136
580.622	-0.0002
580.8144	0.0046
581.0068	0.0039
581.1992	0.0036
581.3915	0
581.5839	0.0061
581.7762	0.0018
581.9685	0.0043
582.1608	0.0052
582.353	0.0049
582.5453	0.0038
582.7375	0.006
582.9298	-0.0002
583.122	0.0021
583.3142	0.0073
583.5063	-0.0007
583.6985	0.0053
583.8906	0.0028
584.0827	0.0072
584.2749	-0.0004
584.4669	0.0039
584.659	0.0104
584.8511	0.0048
585.0431	0.0074
585.2352	0.003
585.4272	0.0048
585.6192	0.0036
585.8111	0.0066
586.0031	0.0019
586.195	0.0066
586.387	0.0034
586.5789	0.0065
586.7708	0.0038
586.9627	0.0065
587.1545	0.0042
587.3464	0.0067
587.5382	0.0033
587.73	0.0118
587.9218	0.0022
588.1136	0.002
588.3053	0.0067
588.4971	0.0049
588.6888	-0.0016
588.8805	-0
589.0722	0.0076
589.2639	0.0059
589.4556	0.004
589.6472	0.008
589.8389	0.0027
590.0305	0.01
590.2221	0.0119
590.4137	0.0005
590.6052	-0.0003
590.7968	0.0048
590.9883	0.0068
591.1798	-0.0037
591.3713	0.0032
591.5628	0.0054
591.7543	0.0025
591.9458	0.0081
592.1372	0.0045
592.3286	0.0046
592.52	0.0049
592.7114	0.002
592.9028	0.0099
593.0941	-0.0008
593.2855	0.0006
593.4768	0.0059
593.6681	0.0092
593.8594	0.0057
594.0506	0.002
594.2419	0.0051
594.4331	0.0052
594.6244	0.0013
594.8156	0.001
595.0067	-0.0012
595.1979	0.0029
595.3891	0.0053
595.5802	0.0084
595.7713	0.0047
595.9624	0.0098
596.1535	0.0121
596.3446	-0.0039
596.5357	0.0083
596.7267	0.0071
596.9177	-0.002
597.1087	-0.0025
597.2997	0.0077
597.4907	0.0031
597.6817	0.0029
597.8726	0.0119
598.0635	0.0038
598.2544	0.0086
598.4453	0.0039
598.6362	0.0067
598.827	0.0019
599.0179	0.0051
599.2087	0.0084
599.3995	0.0052
599.5903	0.0119
599.7811	0.0112
599.9718	0.0049
600.1626	0.0033
600.3533	0.0054
600.544	0.0093
600.7347	0.0063
600.9254	0.0126
601.116	0.0056
601.3067	0.0058
601.4973	0.0081
601.6879	0.008
601.8785	0.009
602.0691	-0.0009
602.2596	0.0072
602.4502	0.0076
602.6407	0.0081
602.8312	0.003
603.0217	0.0065
603.2122	0.0019
603.4027	0.0074
603.5931	0.0014
603.7835	0.005
603.9739	0.0069
604.1643	0.0103
604.3547	0.0046
604.5451	0.0075
604.7354	0.0005
604.9257	0.0003
605.116	0.0004
605.3063	0.0058
605.4966	0.0077
605.6869	0.0083
605.8771	0.0072
606.0673	0.0011
606.2575	0.0016
606.4477	0.0121
606.6379	-0.0038
606.8281	0.003
607.0182	0.0006
607.2083	0.0033
607.3985	0.0007
607.5885	0.0024
607.7786	0.006
607.9687	0.0054
608.1587	0.0099
608.3488	0.0045
608.5388	0.0019
608.7288	-0.0049
608.9187	0.0007
609.1087	0.0089
609.2986	0.0103
609.4886	0.0023
609.6785	0.008
609.8684	0.003
610.0582	0.0017
610.2481	-0
610.4379	0.0047
610.6278	0.0045
610.8176	0.0098
611.0074	0.0027
611.1971	0.0066
611.3869	0.0134
611.5766	-0.0047
611.7664	0.0093
611.9561	-0.0004
612.1458	0.0037
612.3354	0.0051
612.5251	-0.0021
612.7147	0.0091
612.9044	0.0038
613.094	0.0147
613.2836	0.0032
613.4731	-0.0001
613.6627	0.0107
613.8522	0.0064
614.0417	0.0038
614.2313	0.0051
614.4207	0.0047
614.6102	0.013
614.7997	0.0131
614.9891	0.0034
615.1785	-0.0034
615.3679	0.0051
615.5573	0.0087
615.7467	0.0009
615.9361	0.0009
616.1254	0.01
616.3147	0.0086
616.504	0.0005
616.6933	0.0002
616.8826	0.0018
617.0718	0.0174
617.2611	0.0048
617.4503	0.0006
617.6395	0.0052
617.8287	0.01
618.0179	0.0013
618.207	0.0099
618.3961	0.0124
618.5853	0.0139
618.7744	0.0005
618.9634	0.0036
619.1525	0.0075
619.3416	-0.0035
619.5306	0.0064
619.7196	0.0175
619.9086	0.0028
620.0976	-0.0058
620.2866	0.0056
620.4755	-0.0037
620.6645	0.017
620.8534	0.0053
621.0423	-0.0076
621.2312	0.0062
621.42	0.0008
621.6089	0.0086
621.7977	0.0106
621.9865	0.0059
622.1753	0.0009
622.3641	-0.0022
622.5529	0.0011
622.7416	0.0047
622.9303	-0.0047
623.1191	0.0152
623.3078	0.0005
623.4964	0.0044
623.6851	0.0092
623.8737	-0.0003
624.0624	-0.0011
624.251	0.0098
624.4396	0.0148
624.6282	0.0117
624.8167	0.0037
625.0053	0.0131
625.1938	0.0009
625.3823	0.0129
625.5708	-0.0007
625.7593	-0.0044
625.9477	0.0111
626.1362	0.0049
626.3246	0.0034
626.513	0.0072
626.7014	0.0117
626.8898	0.0144
627.0781	0.0037
627.2665	0.0116
627.4548	-0.0092
627.6431	0.0053
627.8314	0.0054
628.0197	0.003
628.2079	-0.0015
628.3962	0.0052
628.5844	-0.0044
628.7726	0.0015
628.9608	0.0079
629.1489	0.0111
629.3371	0.0079
629.5252	-0.0014
629.7134	-0.0038
629.9015	-0.0037
630.0895	-0.0007
630.2776	0.006
630.4657	0.0112
630.6537	0.0066
630.8417	-0.0077
631.0297	0.0016
631.2177	0.0104
631.4057	0.0103
631.5936	0.0148
631.7815	-0.0024
631.9695	0.0159
632.1574	0.0143
632.3452	0.0017
632.5331	0.0066
632.7209	0.019
632.9088	0.0033
633.0966	0.0191
633.2844	0.0022
633.4722	0.0233
633.6599	0.0107
633.8477	0.0111
634.0354	0.0091
634.2231	-0.011
634.4108	0.0068
634.5985	0.01
634.7861	-0.0031
634.9738	-0.0014
635.1614	0.0092
635.349	0.0196
635.5366	0.002
635.7242	0.0094
635.9117	0.0128
636.0993	0.0055
636.2868	0.0001
636.4743	0.0025
636.6618	-0.0012
636.8492	0.0124
637.0367	-0.001
637.2241	-0.0023
637.4115	0.0326
637.5989	0.0072
637.7863	0.0267
637.9737	-0.0035
638.161	0.0013
638.3484	-0.0018
638.5357	0.002
638.723	0.0225
638.9103	0.0021
639.0975	0.0149
639.2848	0.0221
639.472	0.0192
639.6592	-0.014
639.8464	0.0011
640.0336	0.0125
640.2208	-0.0018
640.4079	-0.0087
640.595	-0.0041
640.7821	0.0171
640.9692	-0.0064
641.1563	0.0139
641.3434	0.0175
641.5304	0.0235
641.7174	0.0072
641.9044	0.0033
642.0914	0.013
642.2784	-0.0017
642.4653	-0.0007
642.6523	0.0097
642.8392	0.0144
643.0261	0.022
643.213	0.0136
643.3999	0.0323
643.5867	0.0122
643.7735	0.0175
643.9604	0.021
644.1472	0.0021
644.3339	-0.0023
644.5207	-0.0005
644.7075	-0.0113
644.8942	0.0024
645.0809	-0.0123
645.2676	-0.0132
645.4543	0.0002
645.6409	0.0291
645.8276	0.0063
646.0142	0.0159
646.2008	0.0108
646.3874	0.0019
646.574	0.0172
646.7605	-0.0017
646.9471	-0.0066
647.1336	-0.0184
647.3201	-0.0054
647.5066	-0.0026
647.6931	-0.0166
647.8795	0.0096
648.0659	0.0004
648.2524	0.009
648.4388	0.0128
648.6252	0.0138
648.8115	0.002
648.9979	0.0128
649.1842	-0.0028
649.3705	0.0195
649.5568	-0.0024
649.7431	-0.0011
649.9294	0.0078
650.1156	-0.0106
650.3018	0.0066
650.488	0.005
650.6742	0.0029
650.8604	0.0055
651.0466	-0.0005
651.2327	0.0095
651.4188	0.0107
651.6049	0.0006
651.791	-0.0073
651.9771	-0.0016
652.1632	0.0143
652.3492	-0.0035
652.5352	0.0219
652.7212	0.002
652.9072	0.008
653.0932	0.0099
653.2791	0.0165
653.465	0.0095
653.651	-0
653.8369	-0.0053
654.0227	-0.0028
654.2086	0.005
654.3944	0.0051
654.5803	0.002
654.7661	0.0053
654.9519	0.0014
655.1377	0
655.3234	0
655.5092	0
655.6949	0
655.8806	0
656.0663	0
656.2519	0
656.4376	0
656.6232	0
656.8088	0
656.9945	0
657.18	0
657.3656	0
657.5511	0
657.7367	0
657.9222	0
658.1077	0
658.2932	0
658.4786	0
658.6641	0
658.8495	0
659.0349	0
659.2203	0
659.4057	0
659.591	0.1573
659.7764	0.036
659.9617	-0.0034
660.147	0.002
660.3323	0.0055
660.5176	-0.0028
660.7028	-0.0124
660.888	0.0115
661.0733	0.0092
661.2585	-0.0114
661.4436	0.0113
661.6288	0.0241
661.8139	-0.0146
661.9991	-0.0053
662.1842	0.0066
662.3693	0.0107
662.5544	0.0208
662.7394	0.0234
662.9245	0.0077
663.1095	0.0071
663.2945	-0.0163
663.4795	-0.0019
663.6644	-0.0011
663.8494	0.0213
664.0343	0.0148
664.2193	0.0104
664.4042	0.0091
664.589	0.0102
664.7739	0.0064
664.9587	-0.0047
665.1436	0.0005
665.3284	-0.0005
665.5132	-0.0306
665.698	0.013
665.8827	0.0128
666.0675	-0.0044
666.2522	0.0177
666.4369	0.0193
666.6216	0.0075
666.8063	-0.0057
666.9909	-0.0017
667.1756	0.0033
667.3602	-0.0029
667.5448	0.0172
667.7294	0.0263
667.9139	0.0184
668.0985	0.0031
668.283	-0.0047
668.4675	0.0148
668.652	0.0003
668.8365	-0.0053
669.0209	0.0194
669.2054	0.0051
669.3898	0.0048
669.5742	0.0342
669.7586	0.006
669.943	-0.0012
670.1273	0.0006
670.3117	0.0206
670.496	0.0184
670.6803	0.0251
670.8646	-0.0215
671.0488	0.0265
671.2331	0.0077
671.4173	0.0116
671.6015	0.0108
671.7857	-0.0038
671.9699	0.0163
672.1541	-0.0108
672.3382	0.0047
672.5223	0.0083
672.7064	0.0073
672.8905	0.0114
673.0746	0.0128
673.2587	-0.0026
673.4427	-0
673.6267	0.0013
673.8107	0.0121
673.9947	0.0187
674.1787	-0
674.3626	0.0143
674.5465	0.0035
674.7304	-0.0172
674.9143	0.016
675.0982	0.0059
675.2821	-0.0054
675.4659	-0.0293
675.6497	-0.0003
675.8335	0.0045
676.0173	-0.0037
676.2011	0.0204
676.3849	-0.0003
676.5686	0.0288
676.7523	0.0154
676.936	-0.0211
677.1197	-0.0103
677.3034	0.0379
677.487	0.007
677.6706	0.0158
677.8542	0.0132
678.0378	0.0156
678.2214	0.0056
678.405	0.0081
678.5885	0.0027
678.772	0.0107
678.9555	0.0044
679.139	0.0241
679.3225	0.0011
679.5059	0.0046
679.6894	0.0142
679.8728	-0.0035
680.0562	0.008
680.2395	0.0021
680.4229	0.0154
680.6062	0.0168
680.7896	-0.0087
680.9729	0.0094
681.1562	0.0054
681.3394	-0.0201
681.5227	0.0005
681.7059	0.019
681.8891	0.004
682.0723	-0.0018
682.2555	0.0022
682.4387	0.0131
682.6218	0.0247
682.805	0.0122
682.9881	0.0206
683.1712	0.0146
683.3542	0.0098
683.5373	-0.0055
683.7203	0.002
683.9034	-0.0096
684.0864	0.0096
684.2694	0.0018
684.4523	0.0153
684.6353	-0.006
684.8182	-0.0135
685.0011	0.0209
685.184	-0.0018
685.3669	0.031
685.5498	-0.0068
685.7326	0.0009
685.9154	0.003
686.0982	0.0062
686.281	-0.0041
686.4638	0.0013
686.6465	0.0056
686.8293	-0.0164
687.012	0.0145
687.1947	-0.0106
687.3774	0.0072
687.56	0.0024
687.7427	0.0005
687.9253	-0.023
688.1079	0.0159
688.2905	-0.0128
688.4731	0.0092
688.6556	0.0213
688.8382	-0.0315
689.0207	0.0182
689.2032	0.0158
689.3857	-0.0071
689.5681	-0.0055
689.7506	0.038
689.933	0.0093
690.1154	0.0275
690.2978	0.0302
690.4802	0.014
690.6626	-0.0025
690.8449	0.021
691.0272	-0.0056
691.2095	-0.0322
691.3918	0.011
691.5741	-0.0091
691.7563	0.0116
691.9386	0.0098
692.1208	-0.0106
692.303	-0.0085
692.4852	0.0029
692.6673	0.0009
692.8495	-0.0111
693.0316	0.0043
693.2137	0.0236
693.3958	-0
693.5778	-0.0133
693.7599	-0.0069
693.9419	-0.0217
694.1239	0.0093
694.3059	0.0055
694.4879	-0.0132
694.6699	-0.0145
694.8518	0.0164
695.0337	0.0309
695.2157	0.0147
695.3975	0.0003
695.5794	-0.0387
695.7613	0.0096
695.9431	-0.0155
696.1249	0.0114
696.3067	-0.0162
696.4885	0.0004
696.6703	-0.0078
696.852	-0.001
697.0337	0.0136
697.2154	0.0208
697.3971	0.0134
697.5788	0.0116
697.7605	-0.0086
697.9421	0.0057
698.1237	0.006
698.3053	-0.0024
698.4869	0.013
698.6685	-0.0135
698.85	-0
699.0315	0.0069
699.213	0.0187
699.3945	0.0055
699.576	0.0201
699.7575	0.0178
699.9389	-0.0016
700.1203	0.008
700.3017	0.0095
700.4831	0.043
700.6645	0.0392
700.8458	0.0092
701.0271	0.0252
701.2084	0.0027
701.3897	0.0011
701.571	0.0057
701.7523	-0.0068
701.9335	0.0148
702.1147	0.0107
702.2959	0.0162
702.4771	0.0096
702.6583	-0.0134
702.8394	-0.0211
703.0205	0.007
703.2016	-0.0138
703.3827	-0.0294
703.5638	0.0245
703.7449	0.0127
703.9259	0.0055
704.1069	-0.0069
704.2879	0.0237
704.4689	0.0062
704.6499	0.0297
704.8308	0.0037
705.0117	0.0072
705.1927	0.0243
705.3735	0.0262
705.5544	-0.0167
705.7353	0.0051
705.9161	-0.0085
706.0969	0.0146
706.2777	0.0088
706.4585	0.0024
706.6393	0.0081
706.82	0.0112
707.0007	-0.0082
707.1815	0.0037
707.3621	0.0389
707.5428	-0.0056
707.7235	-0.0086
707.9041	0.0219
708.0847	0.0097
708.2653	0.0241
708.4459	0.0226
708.6265	0.0017
708.807	-0.0014
708.9875	-0.0238
709.168	-0.018
709.3485	0.026
709.529	0.0289
709.7095	0.0031
709.8899	-0.0023
710.0703	0.0338
710.2507	0.0113
710.4311	-0.0085
710.6115	0.0225
710.7918	0.0191
710.9721	0.0081
711.1524	-0.0138
711.3327	-0.0062
711.513	-0
711.6932	-0.0046
711.8735	0.0212
712.0537	-0.0053
712.2339	-0.002
712.4141	0.035
712.5942	-0.0054
712.7744	0.0372
712.9545	0.0019
713.1346	0.0092
713.3147	0.0031
713.4947	-0.0014
713.6748	0.0053
713.8548	0.024
714.0348	0.0272
714.2148	0.0056
714.3948	0.0092
714.5748	0.0248
714.7547	0
714.9346	0.0138
715.1145	0.0033
715.2944	-0.0231
715.4743	0.0123
715.6541	-0.033
715.834	0.0245
716.0138	0.0155
716.1936	0.0037
716.3733	-0.0084
716.5531	-0.0195
716.7328	0.0094
716.9126	0.0076
717.0923	-0.0322
717.2719	0.0138
717.4516	0.0072
717.6312	-0.0121
717.8109	0.0182
717.9905	0.0233
718.1701	0.0026
718.3496	0.0004
718.5292	-0.013
718.7087	0.025
718.8882	-0.003
719.0677	-0.0065
719.2472	-0.0061
719.4267	0.0232
719.6061	-0.0172
719.7856	0.0467
719.965	-0.0193
720.1443	0.0111
720.3237	-0.009
720.5031	-0.0179
720.6824	-0.0083
720.8617	-0.0172
721.041	0.0224
721.2203	-0.0247
721.3995	-0.0068
721.5788	-0.0062
721.758	0.0038
721.9372	-0.0288
722.1164	-0.0004
722.2956	-0.0095
722.4747	0.0183
722.6538	0.0268
722.8329	0.0082
723.012	0.0043
723.1911	-0.0154
723.3702	0.0174
723.5492	0.0017
723.7282	-0.0034
723.9072	0.0196
724.0862	-0.0009
724.2652	0.0095
724.4441	0.0033
724.623	0.0034
724.8019	0.009
724.9808	0.0242
725.1597	-0.0087
725.3385	0.0179
725.5174	0.0233
725.6962	-0.0078
725.875	-0.0043
726.0538	0.0191
726.2325	0.0267
726.4112	-0.0197
726.59	-0.0251
726.7687	-0.021
726.9474	0.019
727.126	0.0206
727.3047	-0.0151
727.4833	-0.0049
727.6619	-0.0071
727.8405	0.001
728.0191	0.0282
728.1976	0.0082
728.3762	0.0229
728.5547	-0.024
728.7332	0.0248
728.9116	0.0187
729.0901	-0.0148
729.2686	-0.0038
729.447	0.0086
729.6254	0.0019
729.8038	-0.0136
729.9821	-0.0292
730.1605	0.0232
730.3388	0.0026
730.5171	0.004
730.6954	-0.0052
730.8737	0.0109
731.0519	0.0074
731.2302	-0.0046
731.4084	0.0067
731.5866	-0.0012
731.7648	-0.0003
731.9429	0.0266
732.1211	-0.0018
732.2992	-0.0012
732.4773	0.0121
732.6554	-0.0034
732.8335	0.0099
733.0115	0.004
733.1896	0.0024
733.3676	0.0158
733.5456	-0.0043
733.7235	0.0079
733.9015	0.0079
734.0794	0.009
734.2574	-0.0022
734.4353	0.0118
734.6131	-0.0088
734.791	0.0085
734.9689	-0.0017
735.1467	-0.0216
735.3245	0.013
735.5023	0.0038
735.68	0.0016
735.8578	0.0076
736.0355	-0.0056
736.2132	-0.0032
736.3909	-0.0016
736.5686	-0.0136
736.7463	-0.0121
736.9239	0.0152
737.1015	0.0114
737.2791	0.0309
737.4567	0.001
737.6343	-0.0144
737.8118	0.0227
737.9894	-0.0073
738.1669	-0.0023
738.3444	0.0187
738.5218	-0.0149
738.6993	0.0261
738.8767	0.0015
739.0541	-0.0072
739.2315	0.0024
739.4089	0.0127
739.5863	0.008
739.7636	-0.0133
739.9409	-0.0101
740.1182	-0.0095
740.2955	0.013
740.4728	-0.0158
740.65	0.007
740.8272	0.0321
741.0044	-0.0021
741.1816	0.0197
741.3588	0.0087
741.5359	-0.006
741.7131	0.0407
741.8902	-0.0078
742.0673	-0.0353
742.2444	0.0513
742.4214	0.0209
742.5985	-0.0074
742.7755	0.0163
742.9525	-0.0243
743.1295	-0.0226
743.3064	-0.001
743.4834	-0.0161
743.6603	0.0133
743.8372	-0.0262
744.0141	0.049
744.191	0.0376
744.3678	-0.0481
744.5446	-0.0067
744.7215	0.0031
744.8982	-0.0127
745.075	0.0593
745.2518	0.011
745.4285	0.0065
745.6052	-0.0474
745.7819	-0.0074
745.9586	0.0337
746.1353	-0.0056
746.3119	0.0143
746.4885	0.0077
746.6651	-0
746.8417	-0.0096
747.0183	0.0299
747.1948	0.0087
747.3714	0.0085
747.5479	-0
747.7244	-0.0258
747.9008	-0.0317
748.0773	0.0428
748.2537	0.0106
748.4301	-0.0101
748.6065	-0.025
748.7829	-0.0111
748.9593	-0.0094
749.1356	0.0133
749.3119	-0.0038
749.4882	0.018
749.6645	-0.0075
749.8408	0.0209
750.017	0.0161
750.1933	-0.0323
750.3695	0.0197
750.5457	-0.0047
750.7218	0.0222
750.898	-0.0033
751.0741	-0.0178
751.2502	0.0012
751.4263	-0.0038
751.6024	0.0072
751.7784	-0.007
751.9545	0.0044
752.1305	-0.0123
752.3065	0.0012
752.4825	0.0225
752.6584	0.0354
752.8344	-0.004
753.0103	0.0036
753.1862	0.0051
753.3621	0.0013
753.5379	0.0129
753.7138	0.0319
753.8896	0.0139
754.0654	0.016
754.2412	0.0077
754.417	0.0057
754.5927	0.0376
754.7685	0.0103
754.9442	0.0321
755.1199	0.0044
755.2956	-0.0003
755.4712	0.003
755.6469	-0.0077
755.8225	-0.0075
755.9981	0.0093
756.1736	0.0049
756.3492	0.0088
756.5248	0.0178
756.7003	-0.0046
756.8758	-0.0097
757.0513	0.0073
757.2267	0.0066
757.4022	0.001
757.5776	0.0154
757.753	0.0246
757.9284	0.0208
758.1038	0.0057
758.2791	-0.0003
758.4545	-0.0203
758.6298	0.0089
758.8051	0.0163
758.9803	0.0043
759.1556	0.0014
759.3308	0.0126
759.506	0.0033
759.6812	-0.0019
759.8564	0.0113
760.0316	-0.0008
760.2067	0.0205
760.3819	-0.002
760.557	-0.0087
760.732	-0.0007
760.9071	0.008
761.0821	-0.0267
761.2572	-0.0017
761.4322	0.0221
761.6072	0.001
761.7821	-0.0294
761.9571	0.0194
762.132	0.0291
762.3069	0.0321
762.4818	0.0061
762.6567	-0.0165
762.8316	0.029
763.0064	0.0191
763.1812	0.0099
763.356	-0.0049
763.5308	0.0209
763.7055	-0.0162
763.8803	0.0183
764.055	-0.0015
764.2297	-0.0093
764.4044	0.006
764.579	-0.0086
764.7537	0.005
764.9283	0.0059
765.1029	-0.001
765.2775	0.0121
765.4521	0.0237
765.6266	0.0079
765.8011	-0.0051
765.9756	0.0132
766.1501	-0.0214
766.3246	0.0138
766.4991	0.0181
766.6735	0.0403
766.8479	-0.0037
767.0223	0.0071
767.1967	-0
767.371	-0.0066
767.5454	0.0066
767.7197	0.0217
767.894	-0.006
768.0683	0.043
768.2425	0.0078
768.4168	0.0146
768.591	0.0113
768.7652	-0.0166
768.9394	-0.0045
769.1135	-0.0357
769.2877	0.024
769.4618	0.0074
769.6359	-0.0148
769.81	-0.002
769.984	-0.0022
770.1581	-0.0104
770.3321	0.0298
770.5061	-0.0078
770.6801	0.0101
770.8541	0.0003
771.028	0.0287
771.202	0.0272
771.3759	0.0238
771.5498	0.0321
771.7236	0.0086
771.8975	0.0097
772.0713	0.0206
772.2451	-0.0101
772.4189	-0.0024
772.5927	-0.0421
772.7665	-0.0257
772.9402	0.0446
773.1139	0.018
773.2876	-0.0087
773.4613	0.0006
773.635	0.0249
773.8086	0.0108
773.9822	0.0103
774.1558	0.0656
774.3294	0.0159
774.503	0.0177
774.6765	0.0181
774.8501	0.0048
775.0236	0.065
775.1971	0.0077
775.3705	-0.0054
775.544	-0.0177
775.7174	0.0235
775.8908	0.0373
776.0642	0.0422
776.2376	0.0447
776.4109	-0.0026
776.5843	0.0262
776.7576	0.0235
776.9309	0.011
777.1041	0.0018
777.2774	0.0008
777.4506	-0.0026
777.6238	-0.074
777.797	0.0268
777.9702	0.0291
778.1434	-0.014
778.3165	0.0031
778.4896	-0.0286
778.6627	0.0424
778.8358	0.0023
779.0089	-0.0136
779.1819	0.0192
779.3549	0.0312
779.5279	-0.0172
779.7009	0.0109
779.8739	0.0199
780.0468	0.0187
780.2197	0.031
780.3926	-0.0273
780.5655	0.017
780.7384	0.0067
780.9112	0.0261
781.0841	0.0033
781.2569	0.0226
781.4297	-0.0121
781.6024	0.0287
781.7752	0.06
781.9479	0.0343
782.1206	-0.014
782.2933	-0.015
782.466	0.0246
782.6386	0.0011
782.8113	0.0136
782.9839	-0.0099
783.1565	-0.0038
783.329	0.0147
783.5016	-0.0006
783.6741	-0.0156
783.8466	0.0071
784.0191	0.009
784.1916	-0.0356
784.3641	-0.0268
784.5365	0.0259
784.7089	-0.0337
784.8813	0.1101
785.0537	0.0379
785.2261	-0.0146
785.3984	-0.0248
785.5707	-0.0265
785.743	0.026
785.9153	-0.0022
786.0876	-0.0098
786.2598	-0.003
786.432	0.0015
786.6042	0.0098
786.7764	-0.0225
786.9486	-0.0069
787.1207	0.0687
787.2928	0.0619
787.4649	-0.0288
787.637	0.0156
787.8091	-0.0029
787.9811	0.0157
788.1532	0.0193
788.3252	0.01
788.4972	0.0391
788.6691	0.0107
788.8411	-0.0229
789.013	-0.0044
789.1849	-0.0133
789.3568	-0.0252
789.5287	0.0097
789.7005	-0.0508
789.8723	-0.0028
790.0442	-0.0108
790.2159	-0
790.3877	0.0342
790.5595	0.0436
790.7312	0.0215
790.9029	0.0308
791.0746	0.008
791.2463	-0.0756
791.4179	0.0306
791.5896	0.015
791.7612	-0.0109
791.9328	0.0283
792.1044	-0.0057
792.2759	0.0164
792.4474	-0.0249
792.619	-0.0123
792.7905	0.0306
792.9619	0.0646
793.1334	0.0447
793.3048	0.0214
793.4762	-0.0042
793.6476	-0.0597
793.819	0.0087
793.9904	-0.019
794.1617	-0.0141
794.333	0.0226
794.5043	0.026
794.6756	0.0292
794.8469	0.0161
795.0181	-0.0118
795.1893	0.0165
795.3605	0.0258
795.5317	-0.0055
795.7029	-0.0237
795.874	-0.028
796.0452	0.0176
796.2163	0.0445
796.3873	0.0719
796.5584	0.0967
796.7294	-0.0597
796.9005	-0.0015
797.0715	0.0361
797.2425	0.1225
797.4134	0.0493
797.5844	0.0952
797.7553	-0.0568
797.9262	0.0268
798.0971	0.0506
798.2679	0.0036
798.4388	0.0802
798.6096	-0.0574
798.7804	-0.0048
798.9512	0.0365
799.122	-0.0026
799.2927	-0.0197
799.4635	-0.0761
799.6342	0.0015
799.8049	-0.0037
799.9755	-0.0298
800.1462	-0.0121
800.3168	0.0384
800.4874	-0.1541
800.658	0.032
800.8286	0.0206
800.9991	0.0032
801.1696	-0.0349
801.3402	0.0122
801.5106	-0.0644
801.6811	0.0054
801.8516	0.073
802.022	-0.0075
802.1924	0.0798
802.3628	0.0283
802.5332	0.0249
802.7035	0.061
802.8739	0.0281
803.0442	-0.0037
803.2145	0.0116
803.3847	0.0422
803.555	0.0282
803.7252	-0.0627
803.8954	0.0253
804.0656	0.0123
804.2358	0.044
804.4059	0.0508
804.5761	0.0741
804.7462	0.0105
804.9163	-0.0199
805.0864	-0.0237
805.2564	-0
805.4264	-0.0302
805.5965	0.0398
805.7665	-0.0378
805.9364	0.0339
806.1064	0.0035
806.2763	0.0282
806.4462	0.0448
806.6161	0.0281
806.786	-0.0128
806.9559	0.0059
807.1257	0.0155
807.2955	-0.0133
807.4653	0.0347
807.6351	0.0226
807.8048	-0.044
807.9746	-0
808.1443	-0.0497
808.314	0.0203
808.4837	0.0702
808.6533	0.0016
808.8229	0.0014
808.9926	0.0124
809.1622	0.0483
809.3317	0.0035
809.5013	-0.0054
809.6708	0.0152
809.8403	-0.0048
810.0098	-0.0035
810.1793	0.044
810.3488	-0.0422
810.5182	0.0903
810.6876	0.1069
810.857	0.1364
811.0264	-0.0431
811.1958	0.1303
811.3651	-0.0404
811.5344	0.0543
811.7037	0.0415
811.873	0.0687
812.0422	-0.1171
812.2115	0.007
812.3807	-0.1309
812.5499	0.0465
812.7191	-0.0964
812.8882	-0.072
813.0574	-0.0302
813.2265	0.0252
813.3956	0.0148
813.5646	-0.0472
813.7337	0.0072
813.9027	-0.0921
814.0718	0.0306
814.2407	0.0197
814.4097	0.0654
814.5787	0.0775
814.7476	0.0558
814.9165	-0.0193
815.0854	0.0038
815.2543	-0.077
815.4232	0.1345
815.592	0.018
815.7608	-0.1489
815.9296	-0.0137
816.0984	0.2752
816.2671	-0.2863
816.4359	-0.0246
816.6046	0.0349
816.7733	-0.0068
816.942	-0.0053
817.1106	0.0943
817.2793	-0.0086
817.4479	0.0095
817.6165	0.0557
817.785	0.0045
817.9536	-0.0764
818.1221	0.0366
818.2906	0.0459
818.4591	-0.0899
818.6276	-0.0419
818.7961	0.0195
818.9645	-0.0319
819.1329	0.0984
819.3013	-0.0757
819.4697	-0.0265
819.638	0.1816
819.8064	-0.0991
819.9747	-0.0223
820.143	-0.0379
820.3113	0.0604
820.4795	-0.0632
820.6477	0.0261
820.816	-0.0111
820.9842	0.0474
821.1523	-0.0377
821.3205	0.0123
821.4886	-0
821.6567	-0.0542
821.8248	0.139
821.9929	-0.1108
822.1609	0.0034
822.329	-0.045
822.497	0.0692
822.665	-0.022
822.833	-0.0497
823.0009	-0.056
823.1688	-0.1275
823.3367	-0.16
823.5046	0.1075
823.6725	-0.0161
823.8404	-0.0368
824.0082	0.0982
824.176	-0.0943
824.3438	0.0644
824.5116	-0.0249
824.6793	0.1326
824.847	0.0558
825.0147	0.1883
825.1824	0.0621
825.3501	-0.0099
825.5177	-0.139
825.6854	-0.1179
825.853	0.0142
826.0206	-0.0635
826.1881	0.1714
826.3557	-0.1306
826.5232	0.082
826.6907	-0.0318
826.8582	0.0219
827.0257	0.103
827.1931	0.1162
827.3605	0.0615
827.528	-0.1482
827.6953	-0.1835
827.8627	0.0038
828.03	-0.0496
828.1974	0.0422
828.3647	0.0578
828.532	-0.1023
828.6992	0.0262
828.8665	0.0445
829.0337	-0.0563
829.2009	-0.1104
829.3681	0.0878
829.5352	-0.383
829.7024	-0.0295
829.8695	-0.1099
830.0366	0.1214
830.2037	0.1129
830.3707	0.1202
830.5378	0.0056
830.7048	-0.1859
830.8718	0.1538
831.0388	0.0882
831.2057	-0.0799
831.3727	0.0464
831.5396	0.2482
831.7065	-0.8326
831.8734	0.5974
832.0402	0.0604
832.2071	-0
832.3739	0.167
832.5407	-1.2156
832.7075	-0.4562
832.8742	0.5732
833.041	0.0411
833.2077	0.1543
833.3744	0.1004
833.541	0.0759
833.7077	-0.0583
833.8743	0.1426
834.0409	-0.0513
834.2075	0.1753
834.3741	-0.0653
834.5407	0.2666
834.7072	-0.0346
834.8737	0.0641
835.0402	0.2235
835.2067	-0.1105
835.3731	-0.1374
835.5395	0.0468
835.706	-0.2877
835.8723	-0.0286
836.0387	0.0747
836.2051	-0.1135
836.3714	0.2283
836.5377	0.492
836.704	0.2514
836.8703	-0.2201
837.0365	-0.284
837.2027	0.3125
837.3689	0.2642
837.5351	-0.1204
837.7013	-0
837.8674	-0.5698
838.0335	-0.0203
838.1997	0.1039
838.3657	-0
838.5318	-0.3082
838.6978	-0
838.8639	-0.5342
839.0299	-0.0454
839.1958	0.0334
839.3618	-0.191
839.5277	0
839.6937	-0.0399
839.8596	0.3165
840.0254	-0.1173
840.1913	-0.3047
840.3571	-0.0099
840.523	-0
840.6888	1.6491
840.8545	-0
841.0203	0.1667
841.186	-0.0146
841.3517	-0.2102
841.5174	0.1879
841.6831	0.3239
841.8488	-0.0839
842.0144	-0.1186
842.18	0.1988
842.3456	-0.4752
842.5112	-0
842.6767	-0.0344
842.8422	0.1399
843.0077	-0.0515
843.1732	-0.4235
843.3387	-0.1162
843.5042	-0
843.6696	-0.3472
843.835	-0.1651
844.0004	-0.3132
844.1657	-0
844.3311	0.259
844.4964	-0.4743
844.6617	0.3041
844.827	-0
844.9923	0.1845
845.1575	-0.2697
845.3227	0.0422
845.4879	-0.1355
845.6531	-0.0351
845.8183	0.6959
845.9834	1.711
846.1485	0.2539
846.3136	0.0237
846.4787	-0
846.6438	0.0135
846.8088	0.3052
846.9738	-1.0678
847.1388	0.2701
847.3038	0.1501
847.4687	0.8655
847.6337	-0
847.7986	-0.1827
847.9635	-0.1881
848.1284	0.8558
848.2932	0.2595
848.458	-0
848.6228	0.1226
848.7876	-0
848.9524	-0
849.1172	-2.0889
849.2819	-0
849.4466	0.501
849.6113	0.216
849.7759	-0.5446
849.9406	-0.1571
850.1052	0
850.2698	-0
850.4344	-0.7693
850.599	-0
850.7635	0.5113
850.928	-0.0402
851.0925	0.3595
851.257	0.4884
851.4215	-0.2099
851.5859	0.0287
851.7503	-0
851.9147	-0.4445
852.0791	-0.2076
852.2434	0.6904
852.4078	-0
852.5721	-0
852.7364	-0.0303
852.9007	-0.0087
853.0649	-0
853.2291	0.3341
853.3934	-0
853.5575	-0.2612
853.7217	0.6971
853.8859	-0
854.05	-0.4231
854.2141	0.0074
854.3782	-0
854.5423	0.0254
854.7063	-0.2044
854.8703	0.1628
855.0343	0.1065
855.1983	-0.0292
855.3623	0.1042
855.5262	-0
855.6901	0.1423
855.854	0.3673
856.0179	-0.2182
856.1818	-0
856.3456	0.3885
856.5094	-0.3114
856.6732	-0.616
856.837	-1.2832
857.0008	-0.5518
857.1645	-0.2211
857.3282	-0.557
857.4919	0.8113
857.6556	-0.3413
857.8192	-0.0214
857.9828	-0.1176
858.1465	-0.2109
858.31	-0
858.4736	-0
858.6372	0.2053
858.8007	-0.1902
858.9642	0.2595
859.1277	-0
859.2911	-0.5897
859.4546	-0
859.618	0.3384
859.7814	-0
859.9448	0.0558
860.1081	-0
860.2715	-1.5682
860.4348	-0.123
860.5981	0.2239
860.7614	-0.2281
860.9246	-0.1132
861.0879	-0.1814
861.2511	-0.5959
861.4143	-0
861.5774	-0
861.7406	0.1144
861.9037	0.0886
862.0668	-0.8901
862.2299	0.5763
862.393	0.1213
862.556	0.0392
862.7191	-0.248
862.8821	-0.0395
863.0451	0.062
863.208	0
863.371	-0.6639
863.5339	0.2192
863.6968	0.5837
863.8597	-0.2319
864.0225	0.2889
864.1854	-0.2126
864.3482	-0
864.511	0.0755
864.6737	0.3203
864.8365	0.1959
864.9992	-0
865.1619	-0.5897
865.3246	-2.0374
865.4873	-0.3398
865.65	-0
865.8126	0.2211
865.9752	-0.1482
866.1378	0.0815
866.3004	-0.3117
866.4629	-1.8833
866.6254	-0
866.7879	-0.5033
866.9504	0.284
867.1129	0.6096
867.2753	0.1729
867.4377	0.2635
867.6001	-0.4967
867.7625	-0.2923
867.9249	-0
868.0872	-0
868.2495	1.8316
868.4118	0.023
868.5741	0.0538
868.7363	0.1504
868.8986	-0
869.0608	-0
869.223	-0.338
869.3851	-0
869.5473	-0
869.7094	-0
869.8715	-0.8183
870.0336	0.0775
870.1957	-0
870.3577	-0.0154
870.5197	-0.237
870.6817	-0.7328
870.8437	0.0565
871.0057	-0
871.1676	0.361
871.3295	-0.275
871.4914	-0
871.6533	-0.3104
871.8151	0.0478
871.977	-0.4848
872.1388	-0
872.3006	-0.755
872.4623	-0
872.6241	-0
872.7858	0.172
872.9475	-0
873.1092	0.6853
873.2709	0.6034
873.4325	-1.6247
873.5941	-0
873.7557	1.2715
873.9173	-0.1582
874.0789	0.0151
874.2404	-0
874.4019	-0.0297
874.5634	-0
874.7249	0.1369
874.8863	-0.2562
875.0478	-0.1362
875.2092	0.2578
875.3706	0.9688
875.5319	-0
875.6933	0.0948
875.8546	0.7517
876.0159	1.0058
876.1772	-0.4895
876.3385	0.6714
876.4997	0.1859
876.6609	-0
876.8221	1.8633
876.9833	-0
877.1445	0.2613
877.3056	-1.0733
877.4667	0.3823
877.6278	-0
877.7889	-0
877.9499	0.4884
878.111	-0.5811
878.272	-0
878.433	0.4389
878.5939	-0.1844
878.7549	-0.2076
878.9158	-0
879.0767	-0
879.2376	-0
879.3984	0.3117
879.5593	0.285
879.7201	-1.9115
879.8809	-0.221
880.0417	-0.1366
880.2024	0.7438
880.3632	-0.6227
880.5239	-0.0869
880.6846	-0.7057
880.8452	0.3651
881.0059	-0
881.1665	0.3192
881.3271	0.6799
881.4877	0.7617
881.6483	-0.9427
881.8088	-0
881.9693	-0
882.1298	-0
882.2903	-0
