Data from D4ACN5uM440nmA_Absorbance_13-50-25-988.txt Node
Date: Fri Feb 21 13:50:25 GMT 2025
User: LASERRRRR
Spectrometer: FLMT03099
Trigger mode: 0
Integration Time (sec): 1.500000E-2
Scans to average: 1
Electric dark correction enabled: true
Nonlinearity correction enabled: false
Boxcar width: 0
XAxis mode: Wavelengths
Number of Pixels in Spectrum: 3648
>>>>>Begin Spectral Data<<<<<
179.3399	0.0726
179.5586	0.0726
179.7771	0.0726
179.9957	0.5116
180.2143	-0
180.4329	0.8837
180.6514	-0.3216
180.8699	-0
181.0885	-0.3181
181.307	0.2789
181.5255	0.0373
181.744	-0
181.9625	0.6106
182.181	0.2925
182.3994	-0.103
182.6179	-0.2952
182.8363	-0
183.0547	-0
183.2732	0.2554
183.4916	0.2466
183.71	0.1982
183.9284	0.521
184.1467	0.4249
184.3651	0.1978
184.5835	0.1658
184.8018	0.4457
185.0201	0.3411
185.2385	0.1978
185.4568	0.16
185.6751	0.1446
185.8934	0.3618
186.1117	0.0246
186.3299	0.2524
186.5482	0.3661
186.7664	0.0495
186.9847	0.4099
187.2029	0.4154
187.4211	0.0631
187.6393	0.1744
187.8575	0.6448
188.0757	0.206
188.2939	0.0084
188.512	0.3767
188.7302	0.0878
188.9483	0.4698
189.1665	0.5989
189.3846	0.211
189.6027	0.1855
189.8208	0.2273
190.0389	0.1886
190.257	0.2007
190.475	0.0245
190.6931	0.0719
190.9111	0.0543
191.1292	0.182
191.3472	0.1377
191.5652	0.3386
191.7832	0.2025
192.0012	0.1839
192.2192	0.4331
192.4371	0.1926
192.6551	0.2786
192.873	0.2459
193.091	0.3908
193.3089	0.2023
193.5268	0.3409
193.7447	0.2961
193.9626	0.2821
194.1805	0.3007
194.3984	0.2325
194.6162	0.2995
194.8341	0.3855
195.0519	0.2206
195.2697	0.3687
195.4875	0.3868
195.7054	0.3856
195.9231	0.2459
196.1409	0.475
196.3587	0.3471
196.5765	0.3188
196.7942	0.3655
197.012	0.3688
197.2297	0.317
197.4474	0.3911
197.6651	0.3478
197.8828	0.4372
198.1005	0.438
198.3182	0.387
198.5358	0.4013
198.7535	0.3741
198.9711	0.3965
199.1888	0.3666
199.4064	0.391
199.624	0.3811
199.8416	0.4284
200.0592	0.3959
200.2767	0.3984
200.4943	0.4238
200.7119	0.3922
200.9294	0.3934
201.1469	0.4353
201.3645	0.4554
201.582	0.416
201.7995	0.3899
202.017	0.4385
202.2344	0.4394
202.4519	0.3893
202.6694	0.4027
202.8868	0.3926
203.1042	0.3952
203.3217	0.3981
203.5391	0.3956
203.7565	0.3593
203.9739	0.392
204.1913	0.3326
204.4086	0.3399
204.626	0.3705
204.8433	0.3814
205.0607	0.3626
205.278	0.3505
205.4953	0.3285
205.7126	0.3348
205.9299	0.3268
206.1472	0.3395
206.3644	0.3799
206.5817	0.3089
206.7989	0.3249
207.0162	0.3331
207.2334	0.3498
207.4506	0.3132
207.6678	0.3211
207.885	0.3072
208.1022	0.3252
208.3194	0.3078
208.5365	0.3033
208.7537	0.2846
208.9708	0.3142
209.1879	0.2886
209.405	0.2861
209.6222	0.28
209.8392	0.3059
210.0563	0.2926
210.2734	0.2655
210.4905	0.2749
210.7075	0.2774
210.9245	0.264
211.1416	0.2898
211.3586	0.2746
211.5756	0.2435
211.7926	0.2626
212.0096	0.2581
212.2265	0.2565
212.4435	0.2604
212.6604	0.2787
212.8774	0.2522
213.0943	0.2583
213.3112	0.2585
213.5281	0.2607
213.745	0.2366
213.9619	0.2501
214.1788	0.2781
214.3956	0.2481
214.6125	0.2366
214.8293	0.2598
215.0461	0.2515
215.2629	0.2519
215.4798	0.2481
215.6965	0.2519
215.9133	0.2321
216.1301	0.2519
216.3469	0.2452
216.5636	0.2503
216.7803	0.2469
216.9971	0.2625
217.2138	0.2573
217.4305	0.2459
217.6472	0.2454
217.8639	0.2545
218.0805	0.246
218.2972	0.2529
218.5138	0.2606
218.7305	0.2528
218.9471	0.2549
219.1637	0.2685
219.3803	0.2665
219.5969	0.2701
219.8135	0.2635
220.0301	0.2575
220.2466	0.2511
220.4632	0.2596
220.6797	0.2596
220.8962	0.2531
221.1127	0.2672
221.3292	0.2575
221.5457	0.2685
221.7622	0.2694
221.9787	0.2798
222.1951	0.2746
222.4116	0.2668
222.628	0.2813
222.8444	0.273
223.0608	0.2813
223.2772	0.2904
223.4936	0.282
223.71	0.2835
223.9264	0.2806
224.1427	0.294
224.3591	0.2753
224.5754	0.2942
224.7917	0.2914
225.008	0.3013
225.2243	0.3073
225.4406	0.2919
225.6569	0.3082
225.8732	0.3083
226.0894	0.3017
226.3057	0.3081
226.5219	0.3116
226.7381	0.3238
226.9543	0.3185
227.1705	0.3232
227.3867	0.3084
227.6029	0.3307
227.8191	0.3314
228.0352	0.34
228.2513	0.3503
228.4675	0.328
228.6836	0.3424
228.8997	0.3502
229.1158	0.3578
229.3319	0.3516
229.548	0.3393
229.764	0.3595
229.9801	0.3671
230.1961	0.3705
230.4121	0.3773
230.6282	0.3845
230.8442	0.3881
231.0602	0.373
231.2761	0.3816
231.4921	0.3899
231.7081	0.3944
231.924	0.3984
232.14	0.4068
232.3559	0.4049
232.5718	0.4088
232.7877	0.4122
233.0036	0.4176
233.2195	0.4068
233.4353	0.4207
233.6512	0.4204
233.867	0.4291
234.0829	0.4259
234.2987	0.4309
234.5145	0.4316
234.7303	0.4391
234.9461	0.4342
235.1619	0.4446
235.3776	0.4417
235.5934	0.4363
235.8091	0.4384
236.0249	0.4451
236.2406	0.4459
236.4563	0.4441
236.672	0.4454
236.8877	0.4586
237.1034	0.4441
237.319	0.4414
237.5347	0.4545
237.7503	0.4473
237.966	0.4673
238.1816	0.4462
238.3972	0.4608
238.6128	0.4598
238.8284	0.4624
239.0439	0.4567
239.2595	0.4598
239.475	0.4586
239.6906	0.4574
239.9061	0.47
240.1216	0.4628
240.3371	0.4589
240.5526	0.4532
240.7681	0.4611
240.9836	0.4611
241.199	0.4586
241.4145	0.4683
241.6299	0.4498
241.8453	0.4402
242.0607	0.4414
242.2761	0.4411
242.4915	0.4251
242.7069	0.422
242.9223	0.4189
243.1376	0.4081
243.353	0.4091
243.5683	0.4036
243.7836	0.3972
243.9989	0.3823
244.2142	0.3751
244.4295	0.3749
244.6448	0.3649
244.86	0.3571
245.0753	0.3467
245.2905	0.3485
245.5057	0.3337
245.721	0.3456
245.9362	0.334
246.1514	0.3229
246.3665	0.3188
246.5817	0.304
246.7969	0.2995
247.012	0.2978
247.2271	0.2997
247.4423	0.287
247.6574	0.288
247.8725	0.283
248.0876	0.2695
248.3026	0.2634
248.5177	0.2632
248.7328	0.2478
248.9478	0.2516
249.1628	0.2528
249.3779	0.2406
249.5929	0.2406
249.8079	0.239
250.0228	0.2378
250.2378	0.2359
250.4528	0.227
250.6677	0.222
250.8827	0.2157
251.0976	0.2095
251.3125	0.2213
251.5274	0.2059
251.7423	0.2093
251.9572	0.2094
252.172	0.2075
252.3869	0.208
252.6017	0.2056
252.8166	0.1998
253.0314	0.1984
253.2462	0.2004
253.461	0.1941
253.6758	0.194
253.8906	0.193
254.1053	0.1919
254.3201	0.1972
254.5348	0.1814
254.7496	0.1779
254.9643	0.194
255.179	0.1843
255.3937	0.1876
255.6083	0.1916
255.823	0.1848
256.0377	0.1861
256.2523	0.1849
256.467	0.1841
256.6816	0.1867
256.8962	0.1836
257.1108	0.1774
257.3254	0.1811
257.54	0.1744
257.7545	0.1864
257.9691	0.1863
258.1836	0.1791
258.3981	0.1735
258.6127	0.1725
258.8272	0.1847
259.0417	0.1714
259.2561	0.1756
259.4706	0.1703
259.6851	0.1783
259.8995	0.1756
260.114	0.1796
260.3284	0.1744
260.5428	0.1798
260.7572	0.1777
260.9716	0.1789
261.186	0.1768
261.4003	0.1774
261.6147	0.1749
261.829	0.175
262.0433	0.1816
262.2577	0.1737
262.472	0.1811
262.6863	0.1838
262.9005	0.1826
263.1148	0.1788
263.3291	0.1791
263.5433	0.1821
263.7576	0.184
263.9718	0.1799
264.186	0.184
264.4002	0.1837
264.6144	0.1868
264.8286	0.1809
265.0427	0.1868
265.2569	0.1845
265.471	0.1807
265.6851	0.1926
265.8993	0.1848
266.1134	0.1854
266.3275	0.1857
266.5415	0.1829
266.7556	0.1895
266.9697	0.1844
267.1837	0.1825
267.3978	0.1862
267.6118	0.1841
267.8258	0.1835
268.0398	0.1918
268.2538	0.187
268.4677	0.1821
268.6817	0.1859
268.8957	0.1828
269.1096	0.1771
269.3235	0.181
269.5374	0.1782
269.7514	0.1849
269.9652	0.1757
270.1791	0.1772
270.393	0.1756
270.6068	0.1758
270.8207	0.18
271.0345	0.1777
271.2483	0.1719
271.4622	0.181
271.676	0.1767
271.8897	0.172
272.1035	0.1832
272.3173	0.1781
272.531	0.179
272.7448	0.1798
272.9585	0.1695
273.1722	0.176
273.3859	0.1774
273.5996	0.1821
273.8133	0.1859
274.0269	0.1765
274.2406	0.1793
274.4542	0.1772
274.6679	0.1818
274.8815	0.1868
275.0951	0.1874
275.3087	0.186
275.5223	0.1839
275.7358	0.1863
275.9494	0.1855
276.1629	0.1882
276.3765	0.1851
276.59	0.1818
276.8035	0.1898
277.017	0.1912
277.2305	0.1877
277.444	0.186
277.6574	0.1928
277.8709	0.192
278.0843	0.1879
278.2978	0.1911
278.5112	0.1925
278.7246	0.1847
278.938	0.1902
279.1513	0.1913
279.3647	0.185
279.5781	0.1938
279.7914	0.1899
280.0047	0.1892
280.2181	0.1848
280.4314	0.191
280.6447	0.1934
280.8579	0.1843
281.0712	0.1905
281.2845	0.1859
281.4977	0.1843
281.711	0.1811
281.9242	0.186
282.1374	0.1886
282.3506	0.187
282.5638	0.1836
282.7769	0.1817
282.9901	0.1837
283.2033	0.188
283.4164	0.1822
283.6295	0.1855
283.8426	0.1793
284.0557	0.1893
284.2688	0.1836
284.4819	0.188
284.695	0.1913
284.908	0.1799
285.1211	0.1855
285.3341	0.1828
285.5471	0.1832
285.7601	0.1881
285.9731	0.1827
286.1861	0.188
286.3991	0.1934
286.612	0.1901
286.825	0.1903
287.0379	0.1862
287.2508	0.187
287.4637	0.1841
287.6766	0.1853
287.8895	0.1834
288.1024	0.1883
288.3152	0.1908
288.5281	0.1859
288.7409	0.1905
288.9538	0.1878
289.1666	0.1868
289.3794	0.1887
289.5922	0.1839
289.8049	0.1883
290.0177	0.1878
290.2304	0.1858
290.4432	0.1885
290.6559	0.1871
290.8686	0.1873
291.0813	0.1889
291.294	0.1932
291.5067	0.1896
291.7194	0.1892
291.932	0.1854
292.1447	0.1872
292.3573	0.1936
292.5699	0.1896
292.7825	0.1812
292.9951	0.1822
293.2077	0.1866
293.4203	0.1885
293.6328	0.1848
293.8454	0.1909
294.0579	0.1912
294.2704	0.1901
294.4829	0.1845
294.6954	0.1905
294.9079	0.1889
295.1204	0.1848
295.3328	0.1901
295.5453	0.1828
295.7577	0.1901
295.9701	0.1874
296.1825	0.1914
296.3949	0.1883
296.6073	0.1881
296.8197	0.1882
297.0321	0.1903
297.2444	0.1892
297.4567	0.1928
297.6691	0.1866
297.8814	0.1907
298.0937	0.1882
298.306	0.1862
298.5182	0.1962
298.7305	0.1858
298.9428	0.1842
299.155	0.1854
299.3672	0.1817
299.5794	0.186
299.7916	0.1883
300.0038	0.1901
300.216	0.1903
300.4282	0.1873
300.6403	0.1922
300.8525	0.1837
301.0646	0.1942
301.2767	0.1927
301.4888	0.1887
301.7009	0.1892
301.913	0.1897
302.125	0.1869
302.3371	0.1794
302.5491	0.1932
302.7612	0.1951
302.9732	0.1908
303.1852	0.1901
303.3972	0.1876
303.6092	0.1853
303.8211	0.1924
304.0331	0.1866
304.245	0.189
304.457	0.1891
304.6689	0.1868
304.8808	0.1814
305.0927	0.19
305.3046	0.1822
305.5164	0.1836
305.7283	0.1788
305.9401	0.1761
306.152	0.1782
306.3638	0.181
306.5756	0.178
306.7874	0.177
306.9992	0.1743
307.2109	0.1732
307.4227	0.1694
307.6344	0.1689
307.8462	0.1662
308.0579	0.1715
308.2696	0.1703
308.4813	0.166
308.693	0.1644
308.9046	0.1635
309.1163	0.157
309.328	0.1619
309.5396	0.1607
309.7512	0.153
309.9628	0.1572
310.1744	0.1541
310.386	0.1494
310.5976	0.1478
310.8091	0.1521
311.0207	0.149
311.2322	0.1455
311.4437	0.1445
311.6552	0.1428
311.8667	0.1463
312.0782	0.1429
312.2897	0.1462
312.5012	0.1424
312.7126	0.1371
312.924	0.1399
313.1355	0.1408
313.3469	0.1348
313.5583	0.143
313.7696	0.1339
313.981	0.1405
314.1924	0.1325
314.4037	0.1337
314.6151	0.1335
314.8264	0.1374
315.0377	0.1389
315.249	0.1399
315.4603	0.1274
315.6716	0.1355
315.8828	0.1298
316.0941	0.1355
316.3053	0.1257
316.5165	0.1329
316.7277	0.1269
316.9389	0.1377
317.1501	0.1342
317.3613	0.1292
317.5724	0.1232
317.7836	0.1243
317.9947	0.1257
318.2058	0.1283
318.417	0.1263
318.6281	0.123
318.8391	0.1325
319.0502	0.1273
319.2613	0.1253
319.4723	0.1317
319.6834	0.1336
319.8944	0.1258
320.1054	0.1268
320.3164	0.1247
320.5274	0.1289
320.7383	0.1325
320.9493	0.1232
321.1602	0.1287
321.3712	0.1294
321.5821	0.1243
321.793	0.138
322.0039	0.1305
322.2148	0.1274
322.4257	0.1236
322.6365	0.126
322.8474	0.1285
323.0582	0.1313
323.269	0.1263
323.4798	0.1343
323.6906	0.1287
323.9014	0.1273
324.1122	0.1229
324.3229	0.1386
324.5337	0.1339
324.7444	0.137
324.9551	0.1331
325.1658	0.1289
325.3765	0.1381
325.5872	0.1355
325.7979	0.1322
326.0085	0.1298
326.2192	0.1257
326.4298	0.138
326.6404	0.1388
326.851	0.1302
327.0616	0.1411
327.2722	0.1367
327.4828	0.1371
327.6933	0.1398
327.9039	0.134
328.1144	0.1329
328.3249	0.1394
328.5354	0.1392
328.7459	0.14
328.9564	0.1371
329.1669	0.1447
329.3773	0.1414
329.5878	0.1328
329.7982	0.1383
330.0086	0.1398
330.219	0.137
330.4294	0.1436
330.6398	0.1457
330.8502	0.1401
331.0605	0.1411
331.2708	0.1417
331.4812	0.1347
331.6915	0.141
331.9018	0.1389
332.1121	0.1495
332.3224	0.1411
332.5326	0.1462
332.7429	0.1457
332.9531	0.1415
333.1633	0.1388
333.3735	0.136
333.5837	0.1405
333.7939	0.1445
334.0041	0.1396
334.2143	0.1359
334.4244	0.1448
334.6346	0.1439
334.8447	0.1448
335.0548	0.1449
335.2649	0.1478
335.475	0.146
335.685	0.1416
335.8951	0.1391
336.1051	0.1433
336.3152	0.1441
336.5252	0.1399
336.7352	0.1384
336.9452	0.1403
337.1552	0.1455
337.3652	0.1376
337.5751	0.1428
337.7851	0.1414
337.995	0.1487
338.2049	0.1443
338.4148	0.15
338.6247	0.1451
338.8346	0.1423
339.0445	0.1458
339.2543	0.1435
339.4642	0.1424
339.674	0.1465
339.8838	0.1483
340.0936	0.1441
340.3034	0.1408
340.5132	0.1437
340.7229	0.1486
340.9327	0.1533
341.1424	0.1483
341.3522	0.1433
341.5619	0.1515
341.7716	0.1495
341.9813	0.1596
342.1909	0.1541
342.4006	0.1546
342.6102	0.1514
342.8199	0.1626
343.0295	0.1489
343.2391	0.1559
343.4487	0.1541
343.6583	0.1608
343.8679	0.1574
344.0774	0.1595
344.287	0.1553
344.4965	0.1588
344.706	0.1663
344.9155	0.154
345.125	0.1563
345.3345	0.1699
345.544	0.1623
345.7534	0.1641
345.9629	0.1649
346.1723	0.1633
346.3817	0.1659
346.5911	0.1734
346.8005	0.1764
347.0099	0.166
347.2193	0.1766
347.4286	0.1737
347.638	0.169
347.8473	0.1675
348.0566	0.1731
348.2659	0.1751
348.4752	0.1749
348.6845	0.1716
348.8937	0.1776
349.103	0.1734
349.3122	0.168
349.5214	0.1771
349.7306	0.1805
349.9398	0.1775
350.149	0.1731
350.3582	0.1759
350.5674	0.1778
350.7765	0.184
350.9856	0.1752
351.1948	0.1787
351.4039	0.1851
351.613	0.1839
351.822	0.1855
352.0311	0.1846
352.2402	0.1853
352.4492	0.1809
352.6582	0.1759
352.8672	0.1839
353.0762	0.1856
353.2852	0.1866
353.4942	0.1836
353.7032	0.1854
353.9121	0.1852
354.1211	0.1881
354.33	0.1854
354.5389	0.184
354.7478	0.182
354.9567	0.1804
355.1655	0.1835
355.3744	0.1847
355.5833	0.1856
355.7921	0.1914
356.0009	0.1854
356.2097	0.1819
356.4185	0.1902
356.6273	0.1892
356.8361	0.1847
357.0448	0.1859
357.2536	0.1933
357.4623	0.1952
357.671	0.1889
357.8797	0.1904
358.0884	0.1854
358.2971	0.1887
358.5057	0.191
358.7144	0.1844
358.923	0.1958
359.1316	0.1996
359.3402	0.1958
359.5488	0.1968
359.7574	0.2033
359.966	0.1997
360.1746	0.192
360.3831	0.2036
360.5916	0.2
360.8002	0.2023
361.0087	0.1976
361.2172	0.2047
361.4256	0.1955
361.6341	0.2103
361.8426	0.2016
362.051	0.204
362.2594	0.2024
362.4678	0.212
362.6762	0.2127
362.8846	0.2109
363.093	0.2063
363.3014	0.2103
363.5097	0.2165
363.718	0.2117
363.9264	0.2156
364.1347	0.2138
364.343	0.2144
364.5513	0.2134
364.7595	0.2252
364.9678	0.2142
365.176	0.2272
365.3842	0.2307
365.5925	0.2209
365.8007	0.22
366.0089	0.2327
366.217	0.2239
366.4252	0.218
366.6333	0.2254
366.8415	0.2301
367.0496	0.2234
367.2577	0.2262
367.4658	0.2202
367.6739	0.219
367.882	0.2293
368.09	0.224
368.2981	0.2363
368.5061	0.2336
368.7141	0.2279
368.9221	0.2434
369.1301	0.2354
369.3381	0.2373
369.5461	0.2385
369.754	0.2331
369.962	0.2355
370.1699	0.246
370.3778	0.2482
370.5857	0.2352
370.7936	0.2409
371.0015	0.2385
371.2093	0.2412
371.4172	0.2402
371.625	0.2352
371.8328	0.2383
372.0406	0.2543
372.2484	0.2494
372.4562	0.2515
372.664	0.2416
372.8717	0.2391
373.0795	0.2579
373.2872	0.2569
373.4949	0.2492
373.7026	0.2529
373.9103	0.2483
374.118	0.2494
374.3256	0.2466
374.5333	0.2549
374.7409	0.2597
374.9485	0.2531
375.1561	0.2545
375.3637	0.2591
375.5713	0.2658
375.7789	0.2611
375.9864	0.2564
376.194	0.2585
376.4015	0.251
376.609	0.2602
376.8165	0.2648
377.024	0.2556
377.2315	0.2633
377.4389	0.2579
377.6464	0.2685
377.8538	0.2626
378.0612	0.268
378.2686	0.2602
378.476	0.275
378.6834	0.2628
378.8908	0.276
379.0981	0.2691
379.3055	0.2622
379.5128	0.263
379.7201	0.2779
379.9274	0.2696
380.1347	0.2712
380.342	0.2833
380.5492	0.2787
380.7565	0.2737
380.9637	0.2739
381.1709	0.2691
381.3781	0.2786
381.5853	0.2747
381.7925	0.2715
381.9997	0.2841
382.2068	0.285
382.4139	0.2746
382.6211	0.2822
382.8282	0.2925
383.0353	0.2812
383.2424	0.2808
383.4494	0.2846
383.6565	0.2884
383.8635	0.2818
384.0706	0.2838
384.2776	0.2882
384.4846	0.2906
384.6916	0.2843
384.8986	0.2807
385.1055	0.3002
385.3125	0.2885
385.5194	0.2939
385.7263	0.283
385.9333	0.2934
386.1402	0.2859
386.347	0.2826
386.5539	0.2872
386.7608	0.2841
386.9676	0.2875
387.1744	0.2834
387.3813	0.2852
387.5881	0.281
387.7948	0.2943
388.0016	0.2937
388.2084	0.2899
388.4151	0.2903
388.6219	0.275
388.8286	0.2887
389.0353	0.2854
389.242	0.2852
389.4487	0.2825
389.6553	0.2719
389.862	0.2717
390.0686	0.2865
390.2753	0.2806
390.4819	0.2856
390.6885	0.2747
390.8951	0.279
391.1016	0.2861
391.3082	0.276
391.5147	0.2689
391.7213	0.2748
391.9278	0.271
392.1343	0.2734
392.3408	0.264
392.5473	0.2682
392.7537	0.2639
392.9602	0.272
393.1666	0.2701
393.373	0.2648
393.5794	0.2559
393.7858	0.2687
393.9922	0.2596
394.1986	0.2595
394.4049	0.2667
394.6113	0.2622
394.8176	0.2507
395.0239	0.255
395.2302	0.2564
395.4365	0.2598
395.6428	0.2496
395.8491	0.2554
396.0553	0.2558
396.2615	0.2483
396.4678	0.2594
396.674	0.2486
396.8802	0.2495
397.0863	0.2457
397.2925	0.2475
397.4987	0.2443
397.7048	0.2551
397.9109	0.2442
398.117	0.2451
398.3231	0.2393
398.5292	0.239
398.7353	0.2377
398.9413	0.2395
399.1474	0.2372
399.3534	0.2408
399.5594	0.2511
399.7654	0.242
399.9714	0.2422
400.1774	0.244
400.3833	0.2438
400.5893	0.2472
400.7952	0.2596
401.0011	0.2384
401.207	0.2443
401.4129	0.2355
401.6188	0.2363
401.8247	0.2504
402.0305	0.2426
402.2364	0.247
402.4422	0.2422
402.648	0.2433
402.8538	0.2414
403.0596	0.2427
403.2654	0.2393
403.4711	0.2332
403.6768	0.2381
403.8826	0.2433
404.0883	0.2391
404.294	0.2388
404.4997	0.2394
404.7054	0.2448
404.911	0.2375
405.1167	0.2461
405.3223	0.237
405.5279	0.2349
405.7335	0.237
405.9391	0.233
406.1447	0.2531
406.3502	0.2445
406.5558	0.2367
406.7613	0.2459
406.9668	0.2423
407.1724	0.2388
407.3778	0.2411
407.5833	0.2379
407.7888	0.2374
407.9942	0.2455
408.1997	0.2436
408.4051	0.2334
408.6105	0.2476
408.8159	0.2372
409.0213	0.2407
409.2267	0.2487
409.432	0.2412
409.6374	0.2353
409.8427	0.2468
410.048	0.2405
410.2533	0.2453
410.4586	0.2333
410.6639	0.2444
410.8691	0.228
411.0744	0.2332
411.2796	0.2457
411.4848	0.237
411.69	0.2404
411.8952	0.2423
412.1004	0.2418
412.3056	0.2381
412.5107	0.2387
412.7158	0.2382
412.921	0.2386
413.1261	0.2435
413.3312	0.2339
413.5362	0.2507
413.7413	0.245
413.9464	0.2328
414.1514	0.2417
414.3564	0.2268
414.5614	0.2331
414.7664	0.233
414.9714	0.2396
415.1764	0.2324
415.3813	0.2363
415.5863	0.2403
415.7912	0.233
415.9961	0.2462
416.201	0.2408
416.4059	0.241
416.6108	0.2287
416.8156	0.2226
417.0205	0.238
417.2253	0.2297
417.4301	0.2338
417.6349	0.2282
417.8397	0.2296
418.0445	0.2307
418.2492	0.2247
418.454	0.2209
418.6587	0.2326
418.8634	0.23
419.0681	0.2314
419.2728	0.2292
419.4775	0.2379
419.6822	0.2157
419.8868	0.226
420.0915	0.2211
420.2961	0.2205
420.5007	0.2252
420.7053	0.2223
420.9099	0.2293
421.1144	0.2152
421.319	0.2209
421.5235	0.2157
421.728	0.22
421.9325	0.2197
422.137	0.2161
422.3415	0.2128
422.546	0.206
422.7504	0.2192
422.9549	0.2227
423.1593	0.2093
423.3637	0.2065
423.5681	0.2141
423.7725	0.2091
423.9769	0.2135
424.1812	0.2101
424.3856	0.21
424.5899	0.2138
424.7942	0.2125
424.9985	0.2069
425.2028	0.222
425.4071	0.2129
425.6113	0.206
425.8156	0.2085
426.0198	0.2073
426.224	0.2071
426.4282	0.1967
426.6324	0.1993
426.8366	0.1944
427.0407	0.1981
427.2449	0.192
427.449	0.1957
427.6531	0.2073
427.8572	0.1905
428.0613	0.197
428.2654	0.1963
428.4694	0.1865
428.6735	0.1882
428.8775	0.1872
429.0815	0.1848
429.2855	0.1795
429.4895	0.186
429.6935	0.1719
429.8975	0.1736
430.1014	0.1892
430.3053	0.1827
430.5093	0.1729
430.7132	0.1702
430.9171	0.1741
431.1209	0.1793
431.3248	0.1688
431.5286	0.1646
431.7325	0.1755
431.9363	0.1645
432.1401	0.1584
432.3439	0.1595
432.5477	0.1548
432.7514	0.1647
432.9552	0.1568
433.1589	0.1497
433.3627	0.1601
433.5664	0.1492
433.7701	0.1496
433.9737	0.1633
434.1774	0.1416
434.3811	0.1404
434.5847	0.1461
434.7883	0.1527
434.9919	0.1313
435.1955	0.1419
435.3991	0.1452
435.6027	0.1426
435.8062	0.1512
436.0098	0.1368
436.2133	0.132
436.4168	0.1323
436.6203	0.1354
436.8238	0.136
437.0272	0.1258
437.2307	0.1227
437.4341	0.1292
437.6375	0.1224
437.841	0.1185
438.0443	0.1263
438.2477	0.107
438.4511	0.1066
438.6545	0.1181
438.8578	0.1125
439.0611	0.1271
439.2644	0.1097
439.4677	0.1162
439.671	0.1082
439.8743	0.1133
440.0775	0.1025
440.2808	0.1026
440.484	0.1057
440.6872	0.1037
440.8904	0.0936
441.0936	0.1068
441.2967	0.0949
441.4999	0.0867
441.703	0.0911
441.9062	0.0994
442.1093	0.1015
442.3124	0.0971
442.5155	0.0898
442.7185	0.0805
442.9216	0.0894
443.1246	0.0835
443.3276	0.0884
443.5307	0.0768
443.7337	0.0837
443.9366	0.0777
444.1396	0.078
444.3426	0.0694
444.5455	0.0745
444.7484	0.0737
444.9513	0.0694
445.1542	0.0759
445.3571	0.0782
445.56	0.0664
445.7628	0.0715
445.9657	0.0728
446.1685	0.0706
446.3713	0.065
446.5741	0.0679
446.7769	0.0625
446.9797	0.0544
447.1824	0.0631
447.3852	0.0449
447.5879	0.0633
447.7906	0.0515
447.9933	0.0579
448.196	0.0569
448.3986	0.0515
448.6013	0.0476
448.8039	0.056
449.0066	0.0665
449.2092	0.0671
449.4118	0.0474
449.6143	0.0556
449.8169	0.0458
450.0195	0.0388
450.222	0.0519
450.4245	0.0536
450.627	0.0409
450.8295	0.0365
451.032	0.0412
451.2345	0.0405
451.4369	0.0435
451.6394	0.0458
451.8418	0.0373
452.0442	0.0455
452.2466	0.035
452.449	0.04
452.6513	0.0318
452.8537	0.0314
453.056	0.0336
453.2583	0.0341
453.4607	0.0401
453.663	0.0374
453.8652	0.0307
454.0675	0.0349
454.2697	0.0303
454.472	0.0244
454.6742	0.0318
454.8764	0.0397
455.0786	0.0242
455.2808	0.0236
455.4829	0.0322
455.6851	0.0282
455.8872	0.0166
456.0893	0.0245
456.2915	0.0278
456.4935	0.0352
456.6956	0.0226
456.8977	0.0242
457.0997	0.0319
457.3018	0.0186
457.5038	0.0219
457.7058	0.0287
457.9078	0.028
458.1098	0.0292
458.3117	0.0231
458.5137	0.0161
458.7156	0.0274
458.9175	0.026
459.1194	0.0222
459.3213	0.0132
459.5232	0.0234
459.725	0.018
459.9269	0.0216
460.1287	0.0189
460.3305	0.0294
460.5323	0.0229
460.7341	0.0226
460.9359	0.0167
461.1376	0.023
461.3394	0.0177
461.5411	0.0199
461.7428	0.0208
461.9445	0.0127
462.1462	0.0176
462.3479	0.0134
462.5495	0.018
462.7512	0.0294
462.9528	0.0143
463.1544	0.0158
463.356	0.0118
463.5576	0.02
463.7592	0.017
463.9607	0.0143
464.1623	0.0143
464.3638	0.0137
464.5653	0.0066
464.7668	0.0188
464.9683	0.0072
465.1697	0.0082
465.3712	0.003
465.5726	0.0114
465.7741	0.0196
465.9755	0.0018
466.1769	0.0097
466.3782	0.0125
466.5796	0.0219
466.7809	0.0171
466.9823	0.0187
467.1836	0.0112
467.3849	0.0092
467.5862	0.0028
467.7875	0.0129
467.9887	0.0048
468.19	0.0016
468.3912	0.0169
468.5924	0.0066
468.7936	0.01
468.9948	0.0136
469.196	0.0082
469.3972	0.0094
469.5983	0.009
469.7994	0.0209
470.0006	0.0149
470.2017	0.0116
470.4027	0.029
470.6038	0.0093
470.8049	0.0001
471.0059	0.015
471.2069	0.0104
471.408	0.0008
471.6089	0.0145
471.8099	0.0146
472.0109	0.0171
472.2119	0.0276
472.4128	0.0044
472.6137	0.012
472.8146	0.0029
473.0155	0.0142
473.2164	0.0025
473.4173	0.0039
473.6181	0.0008
473.819	0.0114
474.0198	0.0067
474.2206	0.0011
474.4214	0.0077
474.6222	-0.0038
474.8229	0.0065
475.0237	0.0109
475.2244	0.0092
475.4251	0.0028
475.6258	0
475.8265	0.0104
476.0272	0.0058
476.2278	0.0088
476.4285	0.0057
476.6291	0.0068
476.8297	0.0127
477.0303	0.0054
477.2309	0
477.4315	0.0086
477.632	0.0025
477.8326	0.0085
478.0331	0.0106
478.2336	-0.0008
478.4341	0.0062
478.6346	0.0044
478.8351	0.0044
479.0355	0.0067
479.236	0.0228
479.4364	0.0058
479.6368	0.0075
479.8372	0.0026
480.0376	0.0011
480.2379	0.005
480.4383	0.0172
480.6386	-0.0005
480.8389	0.0044
481.0392	0.006
481.2395	0.0112
481.4398	0.0073
481.6401	0.0098
481.8403	0.0095
482.0405	0.0036
482.2408	0.0069
482.441	0.012
482.6411	0.0045
482.8413	0.0048
483.0415	0.0113
483.2416	0.011
483.4417	0.0144
483.6419	-0.0008
483.8419	0.0043
484.042	0.003
484.2421	0.0005
484.4422	0.0051
484.6422	0.0059
484.8422	0.0095
485.0422	0.0049
485.2422	0.0008
485.4422	0.0041
485.6422	0.0005
485.8421	0.0047
486.042	0.0127
486.242	0.0029
486.4419	0.0057
486.6417	0.0047
486.8416	0.0029
487.0415	-0.0002
487.2413	-0.0019
487.4411	0.0051
487.641	-0.0005
487.8408	0.0101
488.0405	0.0149
488.2403	-0.0054
488.4401	0.0085
488.6398	0.0123
488.8395	0.0075
489.0392	0.0095
489.2389	0.0106
489.4386	-0.0013
489.6383	0.0063
489.8379	0.0024
490.0376	0.0087
490.2372	0.0106
490.4368	0.0072
490.6364	-0.0012
490.836	0.0065
491.0355	-0.0075
491.2351	0.003
491.4346	0.005
491.6341	0.0086
491.8336	0.0104
492.0331	0.0128
492.2326	0.0073
492.432	0.0054
492.6315	0.0125
492.8309	0.0086
493.0303	0.0036
493.2297	0.0089
493.4291	0.0077
493.6284	0.0127
493.8278	0.0014
494.0271	0.0046
494.2264	-0.0037
494.4257	0.0112
494.625	0.0007
494.8243	0.0049
495.0236	0.0112
495.2228	0.0177
495.422	0.0067
495.6213	0.011
495.8205	0.0096
496.0196	0.005
496.2188	0.0058
496.418	0.004
496.6171	0.0023
496.8162	0.0038
497.0153	0.0132
497.2144	0.0092
497.4135	0.0091
497.6126	0.0056
497.8116	-0.0045
498.0107	0.0102
498.2097	0.002
498.4087	-0.0003
498.6077	-0.0013
498.8067	0.0096
499.0056	0.0049
499.2046	0.0125
499.4035	0.001
499.6024	-0.0007
499.8013	0.0107
500.0002	0.008
500.199	0.0122
500.3979	0.0041
500.5967	0.0097
500.7956	0.0114
500.9944	0.003
501.1932	0.0115
501.3919	0.0145
501.5907	0.0132
501.7895	0.0055
501.9882	0.0048
502.1869	0.0145
502.3856	0.0065
502.5843	0.0061
502.783	0.0041
502.9816	0.0112
503.1803	0.0064
503.3789	0.0091
503.5775	0.0092
503.7761	0.0052
503.9747	0.009
504.1732	0.0047
504.3718	0.0094
504.5703	0.0059
504.7689	-0.0077
504.9674	0.0137
505.1658	-0.0055
505.3643	0.0091
505.5628	0.0105
505.7612	0.0054
505.9597	-0.0037
506.1581	0.0043
506.3565	-0.0034
506.5549	0.0012
506.7532	0.0023
506.9516	0.0012
507.1499	0.0084
507.3482	0.0036
507.5465	0.008
507.7448	0.0114
507.9431	0.011
508.1414	-0.0049
508.3396	-0.0005
508.5379	-0.001
508.7361	0.0031
508.9343	0.0072
509.1325	0.0112
509.3306	0.0068
509.5288	0.0048
509.7269	0.0054
509.9251	0.0164
510.1232	0.0121
510.3213	0.0098
510.5193	0.0055
510.7174	-0.0012
510.9154	0.0105
511.1135	0.0039
511.3115	0.0129
511.5095	0.0069
511.7075	0.0075
511.9055	0.0037
512.1034	0.0012
512.3014	-0.0012
512.4993	0.0054
512.6972	0.0056
512.8951	0.0056
513.093	0.0057
513.2908	0.0151
513.4887	0.0022
513.6865	0.0016
513.8844	0.0053
514.0822	0.006
514.2799	0.0028
514.4777	0.0054
514.6755	-0.002
514.8732	0.0021
515.0709	0.0127
515.2687	0.0045
515.4664	0.0164
515.664	0.0141
515.8617	0.0089
516.0594	0.0048
516.257	0.0087
516.4546	0.0206
516.6522	0.0106
516.8498	0.0161
517.0474	0.0053
517.2449	-0.0037
517.4425	0.0127
517.64	0.0086
517.8375	0.0148
518.035	0.0032
518.2325	-0.0042
518.43	0.0102
518.6274	0.0036
518.8249	0.001
519.0223	0.0158
519.2197	-0.0012
519.4171	0.0069
519.6145	0.0151
519.8118	-0.0005
520.0092	-0.0052
520.2065	0.0113
520.4038	-0.0027
520.6011	0.0067
520.7984	0.0045
520.9956	0.0124
521.1929	0.0131
521.3901	0.0083
521.5874	0.0178
521.7846	0.0028
521.9818	0.0011
522.1789	0.0032
522.3761	0.0069
522.5732	0.012
522.7704	-0.0014
522.9675	-0.0086
523.1646	-0.0003
523.3617	0.0147
523.5587	0.0053
523.7558	0.006
523.9528	0.006
524.1498	0.0106
524.3468	0.0026
524.5438	0.0157
524.7408	-0.002
524.9378	0.0134
525.1347	0.008
525.3316	0.0083
525.5285	-0.0003
525.7254	-0.0001
525.9223	0.0107
526.1192	0.0147
526.316	0.0109
526.5129	0.0087
526.7097	-0.0014
526.9065	0.0112
527.1033	0.0055
527.3	-0.0009
527.4968	-0.0024
527.6935	-0.0014
527.8903	-0.0029
528.087	-0.0016
528.2837	0.0169
528.4804	-0.0056
528.677	0.0109
528.8737	0.0101
529.0703	0.0059
529.2669	0.0035
529.4635	0.0034
529.6601	-0.0066
529.8567	-0.0059
530.0532	-0.0008
530.2498	0.0019
530.4463	-0.0009
530.6428	-0.0005
530.8393	0.0127
531.0358	0.006
531.2322	0.0001
531.4287	0.0131
531.6251	0.0014
531.8215	-0.0054
532.0179	0.014
532.2143	0.013
532.4107	0.0147
532.607	0.0084
532.8034	0.0047
532.9997	-0.0001
533.196	-0.0008
533.3923	0.0126
533.5886	0.006
533.7848	-0.0035
533.9811	0.0062
534.1773	0.005
534.3735	0.0093
534.5697	0.0039
534.7659	0.0158
534.9621	0.0099
535.1582	0.0017
535.3544	0.0065
535.5505	0.0128
535.7466	0.007
535.9427	0.0055
536.1387	-0.0048
536.3348	0.0079
536.5308	0.007
536.7269	0.0007
536.9229	0.0044
537.1189	0.0123
537.3148	0.0043
537.5108	0.016
537.7068	0.0107
537.9027	-0.0056
538.0986	0.0093
538.2945	0.0042
538.4904	0.0038
538.6863	0.0087
538.8821	0.0058
539.078	0.0064
539.2738	0.0076
539.4696	0.0008
539.6654	-0.0021
539.8611	0.0009
540.0569	-0.0069
540.2526	0.0107
540.4484	-0.0071
540.6441	0.0115
540.8398	0.0114
541.0355	0.0027
541.2311	0.0078
541.4268	0.0085
541.6224	0.013
541.818	0.0076
542.0136	0.0045
542.2092	0.0053
542.4048	0.0012
542.6003	0.008
542.7959	0.0137
542.9914	0.008
543.1869	0.0094
543.3824	0.0105
543.5779	0.0127
543.7734	0.0168
543.9688	0.0135
544.1642	0.005
544.3596	0.0122
544.555	0.0027
544.7504	0.0168
544.9458	0.0056
545.1411	0.0047
545.3365	0.0022
545.5318	0.0033
545.7271	0.0147
545.9224	0.0074
546.1177	0.0071
546.3129	0.0064
546.5081	0.0082
546.7034	-0.002
546.8986	0.0044
547.0938	0.0099
547.289	0.0157
547.4841	-0.0016
547.6793	0.0006
547.8744	0.0075
548.0695	0.0034
548.2646	0.0096
548.4597	0.0049
548.6548	0.016
548.8498	0.0108
549.0448	0.008
549.2399	0.0108
549.4349	0.0118
549.6298	0.0093
549.8248	0.0039
550.0198	0.0096
550.2147	0.0165
550.4096	0.0054
550.6045	0.0046
550.7994	0.0106
550.9943	0.0177
551.1892	-0.0071
551.384	0.0087
551.5788	0.0076
551.7737	0.0067
551.9685	0.0072
552.1632	-0.0004
552.358	0.007
552.5528	0.0151
552.7475	0.0068
552.9422	0.0084
553.1369	0.012
553.3316	0.0093
553.5263	0.0155
553.7209	-0.0006
553.9156	0.004
554.1102	0.0056
554.3048	0
554.4994	0.0003
554.694	0.0076
554.8885	0.0133
555.0831	0.0088
555.2776	0.0037
555.4721	0.0068
555.6666	0.0064
555.8611	0.0084
556.0555	0.0066
556.25	0.0224
556.4444	0.0062
556.6388	0.0056
556.8332	0.0099
557.0276	0.0043
557.222	-0.0026
557.4163	0.0029
557.6107	0.0071
557.805	0.0064
557.9993	0.0024
558.1936	-0.0066
558.3879	0.0069
558.5821	-0.0014
558.7764	-0.0049
558.9706	0.0092
559.1648	0.0122
559.359	0.0027
559.5532	-0.0057
559.7473	0.0003
559.9415	-0.0012
560.1356	0.021
560.3297	0.0058
560.5238	0.0064
560.7179	0.0036
560.9119	0.0044
561.106	-0.0001
561.3	0.0056
561.494	0.0008
561.688	-0.005
561.882	0.0028
562.076	0.002
562.2699	0.0167
562.4639	0.0172
562.6578	0.0149
562.8517	0.0098
563.0456	-0.0002
563.2395	0.0064
563.4333	0.0113
563.6272	0.0043
563.821	0.0099
564.0148	0.0027
564.2086	0.0074
564.4024	0.0176
564.5961	0.0086
564.7899	0.0124
564.9836	0.006
565.1773	0.0134
565.371	0.0019
565.5647	0.0093
565.7584	0.0161
565.952	0.0035
566.1456	0.0045
566.3393	0.0061
566.5329	0.0031
566.7264	0.0066
566.92	0.0044
567.1136	-0.0046
567.3071	-0.0041
567.5006	0.0069
567.6941	0.0059
567.8876	0.0074
568.0811	0.0187
568.2745	0.0045
568.468	0.0038
568.6614	0.0144
568.8548	0.0033
569.0482	0.0063
569.2416	0.0041
569.4349	0.0153
569.6283	0.01
569.8216	0.0027
570.0149	0.0006
570.2082	0.0099
570.4015	0.0065
570.5947	0.0077
570.788	0.0038
570.9812	0.0033
571.1744	0.0068
571.3676	0.0006
571.5608	0.0051
571.754	0.0086
571.9471	0.0117
572.1402	0.0063
572.3333	0.0053
572.5264	0.009
572.7195	-0.0009
572.9126	0.0051
573.1057	0.0098
573.2987	0.0074
573.4917	0.003
573.6847	0.0038
573.8777	0.011
574.0707	0.0057
574.2636	0.0039
574.4566	0.0038
574.6495	-0.0005
574.8424	0.0048
575.0353	0.0062
575.2281	0.009
575.421	0.0028
575.6138	0.0017
575.8067	0.0069
575.9995	0.0047
576.1923	0.0056
576.385	0.0051
576.5778	0.0139
576.7706	0.0035
576.9633	0.0057
577.156	-0.0011
577.3487	0.0024
577.5414	0.0019
577.734	0.0026
577.9267	0.0076
578.1193	0.0116
578.3119	0.0007
578.5045	0.0035
578.6971	0.0019
578.8897	0.0036
579.0822	0.0093
579.2747	0.0032
579.4673	0.0021
579.6598	0.0108
579.8522	0.003
580.0447	0.0097
580.2372	0.0076
580.4296	0.0048
580.622	0.0031
580.8144	0.0064
581.0068	0.0057
581.1992	0.0092
581.3915	0.0002
581.5839	0.0055
581.7762	0.0064
581.9685	0.005
582.1608	0.007
582.353	0.0016
582.5453	0.008
582.7375	0.0043
582.9298	0.0003
583.122	0.0042
583.3142	0.01
583.5063	0.0009
583.6985	0.0008
583.8906	0.0005
584.0827	0.0062
584.2749	0.0002
584.4669	0.0009
584.659	0.0049
584.8511	0.0082
585.0431	0.0102
585.2352	0.0043
585.4272	0.0077
585.6192	0.0048
585.8111	0.0069
586.0031	0.0032
586.195	0.0038
586.387	0.0042
586.5789	0.0084
586.7708	0.0116
586.9627	0.008
587.1545	0.002
587.3464	0.0045
587.5382	0.0074
587.73	0.0128
587.9218	0.0017
588.1136	0.0006
588.3053	0.0076
588.4971	0.0021
588.6888	-0.0019
588.8805	0.0013
589.0722	0.0138
589.2639	0.0032
589.4556	0.0041
589.6472	0.007
589.8389	0.0053
590.0305	0.0079
590.2221	0.0145
590.4137	0.0081
590.6052	0.0012
590.7968	0.0062
590.9883	0.0018
591.1798	0.0045
591.3713	0.0036
591.5628	0.0054
591.7543	0.0011
591.9458	0.0055
592.1372	0.0039
592.3286	0.0035
592.52	0.0081
592.7114	0.0049
592.9028	0.0101
593.0941	0.0061
593.2855	0.004
593.4768	0.0116
593.6681	0.0078
593.8594	0.0048
594.0506	0.0058
594.2419	0.0107
594.4331	0.0058
594.6244	0.0001
594.8156	0.0022
595.0067	0.0001
595.1979	0.0008
595.3891	0.0031
595.5802	0.0078
595.7713	0.0085
595.9624	0.0078
596.1535	0.0074
596.3446	0.0021
596.5357	0.0045
596.7267	0.0015
596.9177	0.0045
597.1087	0.0004
597.2997	0.0081
597.4907	-0.0017
597.6817	0.0085
597.8726	0.0133
598.0635	0.0034
598.2544	0.0119
598.4453	0.0036
598.6362	0.0032
598.827	-0.001
599.0179	0.0059
599.2087	0.0089
599.3995	0.007
599.5903	0.0099
599.7811	0.0131
599.9718	0.0032
600.1626	0.0036
600.3533	0.0004
600.544	0.0078
600.7347	0.0062
600.9254	0.0101
601.116	0.0076
601.3067	0.0008
601.4973	0.0079
601.6879	0.0076
601.8785	0.0118
602.0691	0.0005
602.2596	0.0042
602.4502	0.0151
602.6407	0.0068
602.8312	0.0028
603.0217	0.0086
603.2122	0.0054
603.4027	0.0028
603.5931	0.002
603.7835	0.003
603.9739	0.003
604.1643	0.0089
604.3547	0.002
604.5451	0.007
604.7354	-0.0003
604.9257	0.0074
605.116	0.0035
605.3063	0.0065
605.4966	-0.0023
605.6869	0.0103
605.8771	0.0086
606.0673	0.0047
606.2575	0.0044
606.4477	0.0126
606.6379	0.0057
606.8281	0.0019
607.0182	0.0063
607.2083	0.0056
607.3985	0.0075
607.5885	0.0082
607.7786	0.0056
607.9687	0.0076
608.1587	0.0104
608.3488	0.0069
608.5388	-0.0007
608.7288	0.0007
608.9187	0.0072
609.1087	0.0094
609.2986	0.0093
609.4886	0
609.6785	0.0078
609.8684	0.0056
610.0582	0.0023
610.2481	-0.002
610.4379	0.0001
610.6278	0.0067
610.8176	0.0096
611.0074	0.0049
611.1971	0.0003
611.3869	0.007
611.5766	-0.0003
611.7664	0.0105
611.9561	0.0118
612.1458	0.0095
612.3354	0.0033
612.5251	0.0087
612.7147	0.0073
612.9044	0.0034
613.094	0.0065
613.2836	0.0045
613.4731	0.0058
613.6627	0.0111
613.8522	0.0125
614.0417	0.0032
614.2313	0.0018
614.4207	0.0059
614.6102	0.0098
614.7997	0.0135
614.9891	0.0084
615.1785	-0.005
615.3679	0.0099
615.5573	0.0069
615.7467	0.0033
615.9361	0.0012
616.1254	0.0081
616.3147	0.0093
616.504	0.0072
616.6933	0.0035
616.8826	-0.0016
617.0718	0.0101
617.2611	0.0024
617.4503	0.0033
617.6395	0.0044
617.8287	0.0129
618.0179	0.0063
618.207	0.0123
618.3961	0.0055
618.5853	0.009
618.7744	0.0086
618.9634	0.0091
619.1525	0.005
619.3416	-0.0007
619.5306	0.0148
619.7196	0.0129
619.9086	0.008
620.0976	-0.0068
620.2866	0.0105
620.4755	0.0008
620.6645	0.0122
620.8534	0.0067
621.0423	0.0021
621.2312	0.0049
621.42	0.0098
621.6089	-0.0036
621.7977	0.0124
621.9865	0.0074
622.1753	-0.0072
622.3641	-0.0011
622.5529	-0.0016
622.7416	-0.0026
622.9303	0.0002
623.1191	-0.0024
623.3078	0.0067
623.4964	0.0068
623.6851	0.0069
623.8737	0.0022
624.0624	-0.0045
624.251	0.0092
624.4396	0.008
624.6282	0.0177
624.8167	0.0014
625.0053	0.0055
625.1938	0.0042
625.3823	0.0057
625.5708	-0.0039
625.7593	-0.0011
625.9477	0.0163
626.1362	0.0019
626.3246	0.0057
626.513	0.0142
626.7014	-0.0007
626.8898	0.0136
627.0781	0.0025
627.2665	0.0087
627.4548	-0.0066
627.6431	0.014
627.8314	0.0255
628.0197	0.0121
628.2079	0.0069
628.3962	0.0065
628.5844	0.0019
628.7726	0.0021
628.9608	0.0047
629.1489	0.0046
629.3371	0.009
629.5252	0.0073
629.7134	0.0016
629.9015	0.0061
630.0895	-0.0055
630.2776	0.0134
630.4657	0.0122
630.6537	0.0113
630.8417	-0.0068
631.0297	0.0072
631.2177	0.0041
631.4057	-0.0048
631.5936	-0.0013
631.7815	0.0126
631.9695	0.0291
632.1574	0.0099
632.3452	0.0139
632.5331	0.0034
632.7209	0.0116
632.9088	0.0076
633.0966	0.0369
633.2844	0.0075
633.4722	0.0227
633.6599	0.0179
633.8477	0.0055
634.0354	0.007
634.2231	-0.0081
634.4108	0.0136
634.5985	0.0108
634.7861	0.0137
634.9738	0.0058
635.1614	0.0149
635.349	0.0028
635.5366	0.0017
635.7242	0.0079
635.9117	0.0091
636.0993	0.0023
636.2868	-0.006
636.4743	0.0141
636.6618	-0.0087
636.8492	0.0182
637.0367	-0.0026
637.2241	0.0058
637.4115	0.0374
637.5989	0.0011
637.7863	0.0283
637.9737	0.0124
638.161	0.0038
638.3484	-0.0005
638.5357	0.0126
638.723	0.0085
638.9103	-0.0071
639.0975	0.0116
639.2848	0.0063
639.472	0.0194
639.6592	-0.0084
639.8464	-0.0011
640.0336	0.0147
640.2208	0.0016
640.4079	-0.0068
640.595	-0.0213
640.7821	0.0107
640.9692	-0.0061
641.1563	0.0075
641.3434	0.0181
641.5304	0.0189
641.7174	0.0312
641.9044	0.0231
642.0914	0.0073
642.2784	0.0077
642.4653	-0.0081
642.6523	0.0115
642.8392	0.0126
643.0261	0.0042
643.213	0.0071
643.3999	0.0169
643.5867	0.0056
643.7735	0.0086
643.9604	0.0167
644.1472	0.0099
644.3339	0.0134
644.5207	0.0104
644.7075	-0.0023
644.8942	-0.0007
645.0809	0.0115
645.2676	0.0072
645.4543	0.0183
645.6409	0.0253
645.8276	0.0136
646.0142	0.0199
646.2008	0.002
646.3874	0.0164
646.574	0.019
646.7605	0.034
646.9471	0.002
647.1336	-0.0156
647.3201	0.0117
647.5066	0.0038
647.6931	-0.0032
647.8795	-0.0059
648.0659	0.0024
648.2524	0.0179
648.4388	0.0033
648.6252	0.0151
648.8115	0.0027
648.9979	0.007
649.1842	0.0065
649.3705	0.0145
649.5568	0.0025
649.7431	-0.0079
649.9294	-0.0047
650.1156	-0.0012
650.3018	0.0025
650.488	0.0167
650.6742	0.017
650.8604	0.0182
651.0466	-0.0034
651.2327	0.0076
651.4188	0.0156
651.6049	0.0302
651.791	0.0011
651.9771	-0.0041
652.1632	0.0002
652.3492	-0.0013
652.5352	0.0324
652.7212	0.0046
652.9072	0.0011
653.0932	0.0158
653.2791	0.0138
653.465	-0.0002
653.651	0.0147
653.8369	0.0124
654.0227	0.0022
654.2086	0.0045
654.3944	0.005
654.5803	0.0003
654.7661	0.0037
654.9519	-0.0007
655.1377	0.0002
655.3234	0.0002
655.5092	0.0002
655.6949	0.0002
655.8806	0.0002
656.0663	0.0002
656.2519	0.0002
656.4376	0.0002
656.6232	0.0002
656.8088	0.0002
656.9945	0.0002
657.18	0.0002
657.3656	0.0002
657.5511	0.0002
657.7367	0.0002
657.9222	0.0002
658.1077	0.0002
658.2932	0.0002
658.4786	0.0002
658.6641	0.0002
658.8495	0.0002
659.0349	0.0002
659.2203	0.0002
659.4057	0.0002
659.591	0.1535
659.7764	0.032
659.9617	0.0085
660.147	0.0061
660.3323	0.0107
660.5176	0.0013
660.7028	-0.0033
660.888	-0.0025
661.0733	0.0189
661.2585	-0.0024
661.4436	0.0248
661.6288	0.0114
661.8139	0.0059
661.9991	-0.0108
662.1842	-0.0073
662.3693	0.0092
662.5544	0.0074
662.7394	0.0238
662.9245	-0.0073
663.1095	-0.0019
663.2945	-0.0061
663.4795	-0.0027
663.6644	0.0129
663.8494	0.013
664.0343	0.0164
664.2193	-0.0013
664.4042	0.007
664.589	0.0042
664.7739	0.0072
664.9587	-0.0093
665.1436	0.0069
665.3284	-0.0064
665.5132	-0.012
665.698	0.0119
665.8827	0.0219
666.0675	-0.0139
666.2522	0.0025
666.4369	0.0033
666.6216	0.0076
666.8063	0.0038
666.9909	0.0041
667.1756	-0.0026
667.3602	0.0103
667.5448	0.0262
667.7294	0.0223
667.9139	0.0008
668.0985	0.0152
668.283	-0.0087
668.4675	0.0241
668.652	0.0036
668.8365	0.0011
669.0209	0.0245
669.2054	0.0097
669.3898	-0.0142
669.5742	0.0313
669.7586	0.0357
669.943	0.0121
670.1273	0.0004
670.3117	0.0093
670.496	0.0134
670.6803	0.0072
670.8646	0.0067
671.0488	0.017
671.2331	-0.0067
671.4173	-0.002
671.6015	0.0061
671.7857	0.0019
671.9699	0.0073
672.1541	-0.0029
672.3382	-0.0036
672.5223	0.0066
672.7064	0.0125
672.8905	-0.002
673.0746	0.0364
673.2587	0.0326
673.4427	0.0197
673.6267	0.0224
673.8107	0.0042
673.9947	0.0434
674.1787	0.0341
674.3626	0.0282
674.5465	0.01
674.7304	-0.0019
674.9143	0.0255
675.0982	0.0097
675.2821	0.0123
675.4659	0.0044
675.6497	0.0098
675.8335	0.0256
676.0173	-0.0162
676.2011	0.0137
676.3849	0.0042
676.5686	0.0216
676.7523	0.0047
676.936	0.009
677.1197	-0.0073
677.3034	0.0459
677.487	0.0078
677.6706	0.0131
677.8542	-0.0067
678.0378	0.0246
678.2214	0.0151
678.405	0.003
678.5885	0.0285
678.772	0.0197
678.9555	-0.0018
679.139	0.0176
679.3225	0.0125
679.5059	0.0039
679.6894	0.0099
679.8728	-0.0048
680.0562	0.011
680.2395	-0.0072
680.4229	0.0068
680.6062	0.0047
680.7896	0.0025
680.9729	0.0348
681.1562	0.0068
681.3394	0.0064
681.5227	0.0033
681.7059	0.0157
681.8891	0.0163
682.0723	0.0075
682.2555	0.001
682.4387	0.0085
682.6218	0.0064
682.805	0.017
682.9881	0.024
683.1712	-0.005
683.3542	0.0101
683.5373	0.0061
683.7203	0.0052
683.9034	0.0009
684.0864	0.0042
684.2694	0.0168
684.4523	0.01
684.6353	-0.0014
684.8182	-0.0053
685.0011	0.0086
685.184	0.0064
685.3669	0.023
685.5498	-0.0111
685.7326	0.0053
685.9154	-0.0119
686.0982	0.0093
686.281	-0.0017
686.4638	0.0126
686.6465	0.0067
686.8293	-0.0058
687.012	0.0149
687.1947	-0.0039
687.3774	0
687.56	-0.0077
687.7427	0.0107
687.9253	-0.032
688.1079	-0.0113
688.2905	-0.0116
688.4731	0.0245
688.6556	0.0134
688.8382	-0.014
689.0207	0.0105
689.2032	0.0169
689.3857	-0.0062
689.5681	-0.0027
689.7506	0.0263
689.933	0.0078
690.1154	0.0012
690.2978	-0.009
690.4802	0.0309
690.6626	-0.006
690.8449	0.016
691.0272	0.0038
691.2095	-0.0112
691.3918	0.0016
691.5741	0.0209
691.7563	0.0111
691.9386	0.0145
692.1208	0.0074
692.303	0.0092
692.4852	-0.0061
692.6673	-0.003
692.8495	0.0124
693.0316	0.0008
693.2137	0.0109
693.3958	0.0256
693.5778	0.0199
693.7599	-0.0016
693.9419	0.0207
694.1239	0.008
694.3059	0.0062
694.4879	-0.0083
694.6699	-0.005
694.8518	0.0326
695.0337	-0.0021
695.2157	0.0411
695.3975	0.0186
695.5794	-0.0051
695.7613	0.0109
695.9431	-0.015
696.1249	0.0225
696.3067	0.0035
696.4885	0.0036
696.6703	0.0206
696.852	-0.0058
697.0337	0.0191
697.2154	0.0148
697.3971	0.0123
697.5788	0.0123
697.7605	-0.0069
697.9421	0.0181
698.1237	-0.0019
698.3053	-0.0112
698.4869	0.0103
698.6685	0
698.85	0.026
699.0315	0.0001
699.213	0.0229
699.3945	0.0142
699.576	0.0163
699.7575	0.0341
699.9389	0.0036
700.1203	0.0101
700.3017	0.0076
700.4831	0.0256
700.6645	0.0447
700.8458	-0.0074
701.0271	0.0405
701.2084	0.0095
701.3897	0.0099
701.571	-0.01
701.7523	0.0144
701.9335	0.0117
702.1147	0.0257
702.2959	-0.0063
702.4771	0.0236
702.6583	0.0048
702.8394	-0.0122
703.0205	0.0004
703.2016	-0.0014
703.3827	-0.0228
703.5638	0.0194
703.7449	0.0226
703.9259	0.0181
704.1069	0.0146
704.2879	0.03
704.4689	-0.0121
704.6499	0.0249
704.8308	0.0244
705.0117	0.0042
705.1927	0.0381
705.3735	0.0238
705.5544	0.0264
705.7353	0.0043
705.9161	-0.0365
706.0969	0.0038
706.2777	0.0115
706.4585	0.0129
706.6393	0.0216
706.82	0.0252
707.0007	-0.0075
707.1815	0
707.3621	0.0355
707.5428	0.0338
707.7235	0.0123
707.9041	0.006
708.0847	0.0138
708.2653	0.0162
708.4459	0.0066
708.6265	0.0175
708.807	0.0242
708.9875	-0.0054
709.168	0.0029
709.3485	0.0261
709.529	0.024
709.7095	-0.0145
709.8899	0.015
710.0703	0.0142
710.2507	0.0025
710.4311	-0.0091
710.6115	0.0385
710.7918	0.0324
710.9721	0.0174
711.1524	-0.0166
711.3327	-0.0225
711.513	0.0196
711.6932	-0.0008
711.8735	0.0045
712.0537	-0.0084
712.2339	0.0144
712.4141	0.0319
712.5942	0.0059
712.7744	0.0273
712.9545	0.0123
713.1346	0.0226
713.3147	0.0077
713.4947	0.0084
713.6748	0.0151
713.8548	0.0162
714.0348	0.0191
714.2148	0.0361
714.3948	0.011
714.5748	0.0044
714.7547	0.0174
714.9346	0.0429
715.1145	-0.0111
715.2944	0.0012
715.4743	0.0147
715.6541	0.0136
715.834	0.0511
716.0138	0.0378
716.1936	0.0108
716.3733	-0.0098
716.5531	0.036
716.7328	0.0357
716.9126	0.0351
717.0923	-0.0204
717.2719	0.0083
717.4516	0.0036
717.6312	-0.0174
717.8109	0.008
717.9905	0.0175
718.1701	0.0041
718.3496	0.0012
718.5292	-0.014
718.7087	0.0072
718.8882	0.0489
719.0677	0.0203
719.2472	-0.0064
719.4267	0.0163
719.6061	-0.0076
719.7856	0.0249
719.965	0.0081
720.1443	-0.0092
720.3237	-0.0046
720.5031	-0.0101
720.6824	0.0453
720.8617	0.0076
721.041	0.0129
721.2203	0.0053
721.3995	0.0074
721.5788	0.0223
721.758	-0.0028
721.9372	0.0203
722.1164	-0.0012
722.2956	-0.012
722.4747	-0.0094
722.6538	-0.0099
722.8329	-0.0089
723.012	0.0005
723.1911	0.0299
723.3702	0.0344
723.5492	0.018
723.7282	-0.0193
723.9072	0.0286
724.0862	0.0253
724.2652	0.014
724.4441	0.0146
724.623	0.024
724.8019	0.0047
724.9808	0.0111
725.1597	0.0018
725.3385	0.0194
725.5174	0.0237
725.6962	0.0228
725.875	0.0159
726.0538	-0.0085
726.2325	0.0135
726.4112	-0.0253
726.59	0.002
726.7687	0.0212
726.9474	0.0157
727.126	0.0163
727.3047	-0.012
727.4833	0.0481
727.6619	0.0157
727.8405	-0.003
728.0191	0.0268
728.1976	0.0112
728.3762	0.0011
728.5547	-0.0086
728.7332	0.0112
728.9116	0.0117
729.0901	0.0026
729.2686	0.022
729.447	-0.0344
729.6254	0.0144
729.8038	0.0077
729.9821	-0.005
730.1605	0.0129
730.3388	0.0177
730.5171	0.0231
730.6954	-0.0205
730.8737	0.0148
731.0519	-0.008
731.2302	0.0094
731.4084	0.0176
731.5866	0.0059
731.7648	-0.005
731.9429	0.0091
732.1211	0.0003
732.2992	-0.0054
732.4773	-0.005
732.6554	-0.0073
732.8335	0.0278
733.0115	0.0126
733.1896	-0.0024
733.3676	0.0081
733.5456	0.0023
733.7235	0.0043
733.9015	0.0123
734.0794	0.0051
734.2574	-0.012
734.4353	0.0304
734.6131	0.0085
734.791	-0.0039
734.9689	0.004
735.1467	-0.0168
735.3245	0.0148
735.5023	0.0107
735.68	0
735.8578	0.0142
736.0355	0.0043
736.2132	0.004
736.3909	0.0152
736.5686	-0.0005
736.7463	-0.0164
736.9239	0.0293
737.1015	0.0018
737.2791	-0.0047
737.4567	0.0198
737.6343	0.0135
737.8118	0.014
737.9894	0.0046
738.1669	-0.0127
738.3444	0.0437
738.5218	-0.0162
738.6993	0.0159
738.8767	-0.0027
739.0541	0.0028
739.2315	0.0051
739.4089	0.0074
739.5863	0.0347
739.7636	0.0039
739.9409	0.0044
740.1182	0.0086
740.2955	0.0403
740.4728	-0.0012
740.65	-0.0082
740.8272	0.0105
741.0044	-0.019
741.1816	0.0508
741.3588	-0.0347
741.5359	-0.0185
741.7131	0.0269
741.8902	0.0009
742.0673	-0.0173
742.2444	0.037
742.4214	0.0214
742.5985	0.011
742.7755	0.0366
742.9525	-0.0164
743.1295	-0.0439
743.3064	-0.0143
743.4834	0.022
743.6603	0.0363
743.8372	-0.0237
744.0141	0.0241
744.191	0.0043
744.3678	-0.04
744.5446	0.0087
744.7215	0.0233
744.8982	0.0627
745.075	0.0555
745.2518	-0.0013
745.4285	0.0275
745.6052	0.007
745.7819	0.0086
745.9586	0.0338
746.1353	-0.0421
746.3119	0.0048
746.4885	0.0407
746.6651	0.0208
746.8417	-0.0037
747.0183	0.0273
747.1948	0.0123
747.3714	0.0091
747.5479	0.0391
747.7244	0.0092
747.9008	0.0057
748.0773	0.0314
748.2537	0.0616
748.4301	0.0179
748.6065	-0.0249
748.7829	-0.0227
748.9593	0.0035
749.1356	0.0039
749.3119	0.0331
749.4882	0.0242
749.6645	0.0185
749.8408	0.0082
750.017	0.0213
750.1933	-0.0136
750.3695	0.0287
750.5457	0.0079
750.7218	0.0007
750.898	-0.0046
751.0741	0.0464
751.2502	-0.0033
751.4263	-0.0136
751.6024	-0.0124
751.7784	-0.0013
751.9545	-0.0109
752.1305	-0.0011
752.3065	0.0051
752.4825	0.0013
752.6584	0.0237
752.8344	-0.008
753.0103	-0.0138
753.1862	0.0339
753.3621	0.0113
753.5379	0.0054
753.7138	-0.002
753.8896	0.0154
754.0654	0.0015
754.2412	0.0433
754.417	0.0364
754.5927	0.0132
754.7685	0.011
754.9442	0.0093
755.1199	0.0178
755.2956	0.0228
755.4712	0.0018
755.6469	-0.004
755.8225	0.0099
755.9981	0.0278
756.1736	0.0186
756.3492	0.0054
756.5248	0.0221
756.7003	-0.0043
756.8758	0.0111
757.0513	0.0083
757.2267	0.0037
757.4022	-0.0055
757.5776	0.0093
757.753	0.0288
757.9284	-0.0007
758.1038	0.0188
758.2791	0.0023
758.4545	-0.0008
758.6298	0.013
758.8051	0.0282
758.9803	0.0133
759.1556	0.0065
759.3308	0.0053
759.506	-0.0015
759.6812	-0.0023
759.8564	-0.0062
760.0316	-0.0022
760.2067	0.027
760.3819	0.0112
760.557	-0.011
760.732	-0.0067
760.9071	0.0258
761.0821	-0.0125
761.2572	0.0112
761.4322	0.0225
761.6072	0.0021
761.7821	-0.0239
761.9571	0.0194
762.132	0.0081
762.3069	0.0062
762.4818	-0.0071
762.6567	0.028
762.8316	0.0152
763.0064	0.0112
763.1812	0.0125
763.356	-0.0059
763.5308	0.0235
763.7055	0.0069
763.8803	0.0105
764.055	0.0021
764.2297	0.0024
764.4044	0.0087
764.579	-0.0124
764.7537	-0.0007
764.9283	0.0188
765.1029	0.0008
765.2775	0.0176
765.4521	0.0176
765.6266	-0.0003
765.8011	0.0195
765.9756	0.0238
766.1501	-0.0074
766.3246	-0.0155
766.4991	0.034
766.6735	0.0534
766.8479	-0.0057
767.0223	0.0179
767.1967	0.0121
767.371	0.0502
767.5454	0.0433
767.7197	0.058
767.894	0.0029
768.0683	0.0271
768.2425	0.0154
768.4168	0.0007
768.591	0.0136
768.7652	-0.0074
768.9394	-0.0116
769.1135	-0.026
769.2877	0.0385
769.4618	0.0615
769.6359	0.0132
769.81	0.0109
769.984	0.0193
770.1581	-0.0051
770.3321	0.0325
770.5061	-0.0042
770.6801	0.0167
770.8541	0.0011
771.028	0.0418
771.202	0.0367
771.3759	-0.0019
771.5498	0.0237
771.7236	-0.0017
771.8975	0.0187
772.0713	0.027
772.2451	-0.0273
772.4189	0.0089
772.5927	-0.0411
772.7665	-0.0069
772.9402	0.0459
773.1139	0.0198
773.2876	-0.0198
773.4613	0.0502
773.635	0.0278
773.8086	0.0451
773.9822	0.0049
774.1558	0.0604
774.3294	0.0407
774.503	0.0085
774.6765	0.0146
774.8501	0.0042
775.0236	0.0398
775.1971	0.0009
775.3705	-0.0022
775.544	-0.0231
775.7174	0.0001
775.8908	-0.0042
776.0642	0.0229
776.2376	0.0375
776.4109	0.0453
776.5843	0.0227
776.7576	0.0227
776.9309	0.0035
777.1041	-0.0469
777.2774	0.0205
777.4506	-0.0158
777.6238	-0.012
777.797	0.0628
777.9702	0.0413
778.1434	0.0063
778.3165	-0.0291
778.4896	-0.0358
778.6627	0.0283
778.8358	0.01
779.0089	-0.0158
779.1819	0.0347
779.3549	0.0154
779.5279	0.008
779.7009	0.031
779.8739	0.0611
780.0468	-0.0151
780.2197	-0.0117
780.3926	-0.0032
780.5655	0.0409
780.7384	-0.0066
780.9112	0.0312
781.0841	0.0043
781.2569	0.0347
781.4297	-0.0138
781.6024	-0.0035
781.7752	0.051
781.9479	0.0402
782.1206	0.0092
782.2933	0.0133
782.466	0.0125
782.6386	0.0135
782.8113	0.0059
782.9839	-0.0063
783.1565	0.0416
783.329	-0.0068
783.5016	0.0199
783.6741	0.0384
783.8466	0.0161
784.0191	0.0098
784.1916	-0.0311
784.3641	-0.0047
784.5365	0.0317
784.7089	-0.0114
784.8813	0.055
785.0537	0.0284
785.2261	-0.0014
785.3984	0.0156
785.5707	0.0129
785.743	0.059
785.9153	-0.0058
786.0876	-0.0595
786.2598	0.013
786.432	-0.0123
786.6042	0.0639
786.7764	-0.0038
786.9486	0.0015
787.1207	0.0776
787.2928	0.0416
787.4649	-0.0145
787.637	-0.015
787.8091	0.0066
787.9811	0.0321
788.1532	0.0316
788.3252	0.003
788.4972	-0.0286
788.6691	-0.0069
788.8411	-0.0065
789.013	0.0415
789.1849	0.0394
789.3568	0.0195
789.5287	0.0706
789.7005	-0.0352
789.8723	-0.0146
790.0442	-0.0126
790.2159	0.0106
790.3877	0.052
790.5595	0.0566
790.7312	0.0123
790.9029	-0.0409
791.0746	0.0002
791.2463	-0.0158
791.4179	-0.004
791.5896	0.0081
791.7612	0.051
791.9328	-0.0217
792.1044	0.1068
792.2759	0.009
792.4474	0.0002
792.619	0.0199
792.7905	0.0772
792.9619	0.077
793.1334	0.0874
793.3048	0.0611
793.4762	0.0864
793.6476	0.0009
793.819	0.0136
793.9904	0.0149
794.1617	0.0337
794.333	0.0472
794.5043	0.0147
794.6756	0.013
794.8469	0.0239
795.0181	0.0122
795.1893	0.0277
795.3605	0.039
795.5317	-0.0054
795.7029	0.0129
795.874	0.0454
796.0452	0.0588
796.2163	0.0618
796.3873	0.1052
796.5584	0.0698
796.7294	0.0524
796.9005	0.0805
797.0715	-0.0137
797.2425	0.0663
797.4134	0.0128
797.5844	0.0656
797.7553	-0.0544
797.9262	0.0804
798.0971	0.015
798.2679	0.0329
798.4388	0.0541
798.6096	0.0977
798.7804	0.0451
798.9512	0.0443
799.122	-0.0023
799.2927	0.0208
799.4635	-0.0541
799.6342	-0.0322
799.8049	0.1064
799.9755	0.0052
800.1462	0.068
800.3168	0.0344
800.4874	-0.0635
800.658	0.0502
800.8286	-0.0028
800.9991	0.1356
801.1696	-0.0155
801.3402	0.0491
801.5106	-0.0141
801.6811	0.0057
801.8516	0.0887
802.022	0.0176
802.1924	-0.02
802.3628	0.0751
802.5332	0.1047
802.7035	0.1115
802.8739	0.1496
803.0442	0.0938
803.2145	0.0561
803.3847	0.0209
803.555	0.027
803.7252	-0.0222
803.8954	0.0052
804.0656	0.0033
804.2358	0.0693
804.4059	-0.0013
804.5761	0.0317
804.7462	-0.0456
804.9163	0.0195
805.0864	0.0003
805.2564	-0.0325
805.4264	0.0188
805.5965	0.0175
805.7665	0.0334
805.9364	0.0097
806.1064	0.0193
806.2763	0.0175
806.4462	0.0067
806.6161	0.0358
806.786	0.0356
806.9559	0.0507
807.1257	0.0263
807.2955	0.0378
807.4653	0.0401
807.6351	0.0909
807.8048	0.0328
807.9746	0.0544
808.1443	0.0016
808.314	-0.0147
808.4837	0.0733
808.6533	-0.0121
808.8229	0.1492
808.9926	0.0416
809.1622	0.0169
809.3317	-0.0344
809.5013	0.004
809.6708	0.0277
809.8403	0.0151
810.0098	0.0908
810.1793	0.049
810.3488	0.0003
810.5182	0.1277
810.6876	-0.0168
810.857	0.0254
811.0264	0.0029
811.1958	0.0706
811.3651	0.0372
811.5344	0.1502
811.7037	0.0243
811.873	0.1038
812.0422	-0.0819
812.2115	-0.0179
812.3807	0.0005
812.5499	-0.0272
812.7191	-0.0314
812.8882	-0.0553
813.0574	0.0711
813.2265	0.156
813.3956	0.1113
813.5646	0.0881
813.7337	0.0205
813.9027	-0.0801
814.0718	0.0671
814.2407	0.0371
814.4097	0.0468
814.5787	0.1436
814.7476	0.0382
814.9165	0.0449
815.0854	0.059
815.2543	0.0099
815.4232	0.1607
815.592	0.0685
815.7608	-0.0935
815.9296	0.0902
816.0984	-0.0133
816.2671	-0.2408
816.4359	0.2241
816.6046	-0.0402
816.7733	0.004
816.942	0.0545
817.1106	0.1366
817.2793	-0.0024
817.4479	-0.0181
817.6165	0.0984
817.785	0.0095
817.9536	-0.0609
818.1221	0.0769
818.2906	-0.0286
818.4591	-0.0084
818.6276	0.102
818.7961	-0.1062
818.9645	0.0605
819.1329	0.094
819.3013	-0.1374
819.4697	0.3163
819.638	0.0239
819.8064	0.1662
819.9747	-0.0124
820.143	-0.0689
820.3113	0.01
820.4795	0.0032
820.6477	0.1129
820.816	0.119
820.9842	0.1584
821.1523	0.0193
821.3205	0.0542
821.4886	-0.1082
821.6567	-0.0726
821.8248	0.1034
821.9929	-0.1792
822.1609	-0.0028
822.329	0.0575
822.497	0.0755
822.665	0.0519
822.833	0.1416
823.0009	-0.0267
823.1688	0.2158
823.3367	-0.1555
823.5046	0.2614
823.6725	-0.0431
823.8404	0.1688
824.0082	-0.0995
824.176	-0.0556
824.3438	0.1946
824.5116	-0.0244
824.6793	0.2188
824.847	0.001
825.0147	0.3769
825.1824	-0.1128
825.3501	0.4839
825.5177	0.0076
825.6854	-0.0855
825.853	0.0809
826.0206	-0.1158
826.1881	0.0043
826.3557	0.0493
826.5232	0.0825
826.6907	0.0582
826.8582	-0.0984
827.0257	0.2687
827.1931	0.1168
827.3605	-0.0533
827.528	0.1338
827.6953	-0.141
827.8627	-0.0921
828.03	0.2125
828.1974	0.0775
828.3647	0.0904
828.532	0.1093
828.6992	0.2113
828.8665	-0.2652
829.0337	0.0698
829.2009	-0.1068
829.3681	-0.091
829.5352	-0.4501
829.7024	0.1324
829.8695	0.0887
830.0366	0.253
830.2037	0.0672
830.3707	0.0782
830.5378	0.2103
830.7048	-0.0476
830.8718	0.3087
831.0388	0.0458
831.2057	0.0879
831.3727	-0.1135
831.5396	0.0258
831.7065	-0.8638
831.8734	0.258
832.0402	0.3464
832.2071	0.0063
832.3739	-0.4181
832.5407	-0.3854
832.7075	-0.1461
832.8742	0.299
833.041	0.0585
833.2077	1.133
833.3744	0.2763
833.541	0.1054
833.7077	0.0403
833.8743	0.2131
834.0409	0.0251
834.2075	0.2164
834.3741	-0.2209
834.5407	0.3467
834.7072	0.0942
834.8737	0.2315
835.0402	0.2154
835.2067	0.1996
835.3731	-0.0452
835.5395	0.1046
835.706	-0.0733
835.8723	-0.135
836.0387	1.1974
836.2051	0.0531
836.3714	0.1968
836.5377	0.164
836.704	0.1851
836.8703	-0.1763
837.0365	-0.7961
837.2027	0.3865
837.3689	0.0492
837.5351	0.5083
837.7013	0.0663
837.8674	-0.2775
838.0335	0.1338
838.1997	0.2244
838.3657	-0
838.5318	-0.3221
838.6978	0.7518
838.8639	-0.4503
839.0299	0.0294
839.1958	0.1875
839.3618	-0
839.5277	0.2632
839.6937	-0.0286
839.8596	-0
840.0254	-0.1227
840.1913	-0.3205
840.3571	1.1057
840.523	-0
840.6888	0.2212
840.8545	-0.4837
841.0203	0.1163
841.186	0.3801
841.3517	0.4273
841.5174	-0.0345
841.6831	-0.1517
841.8488	-0.0465
842.0144	0.0016
842.18	0.3093
842.3456	0.9485
842.5112	-0
842.6767	0.4942
842.8422	-0.0274
843.0077	0.2303
843.1732	-0.5216
843.3387	0.4555
843.5042	-0
843.6696	0.0866
843.835	-0.0783
844.0004	-0.0902
844.1657	-0
844.3311	-0
844.4964	-0
844.6617	-0
844.827	-0
844.9923	0.5471
845.1575	-0
845.3227	0.0689
845.4879	1.7709
845.6531	-0
845.8183	-0.1763
845.9834	-0
846.1485	0.1631
846.3136	-0.1276
846.4787	-0
846.6438	0.0022
846.8088	-0
846.9738	-0
847.1388	0.4404
847.3038	0.4587
847.4687	0.3631
847.6337	0.2173
847.7986	0.0475
847.9635	0.0716
848.1284	-0
848.2932	0.7272
848.458	-0
848.6228	-0
848.7876	0.2543
848.9524	-0.5145
849.1172	-1.8513
849.2819	-0.1461
849.4466	0.1271
849.6113	0.1015
849.7759	-0.5798
849.9406	-0.149
850.1052	0.0483
850.2698	0.0771
850.4344	-0
850.599	0.4055
850.7635	0.1083
850.928	0.2906
851.0925	1.2233
851.257	0.6428
851.4215	-0
851.5859	0.3133
851.7503	-0
851.9147	-0.1243
852.0791	0.1548
852.2434	0.3262
852.4078	-0
852.5721	1.1439
852.7364	-0.0187
852.9007	0.5677
853.0649	-0
853.2291	0.1443
853.3934	-0.0755
853.5575	1.9552
853.7217	0.9159
853.8859	-0.444
854.05	-0.5361
854.2141	0.4056
854.3782	-0
854.5423	0.0571
854.7063	0.2302
854.8703	0.3384
855.0343	0.0974
855.1983	0.2631
855.3623	0.065
855.5262	-0.3236
855.6901	0.8809
855.854	0.0578
856.0179	0.3466
856.1818	0.8419
856.3456	0.1689
856.5094	-0.1603
856.6732	0.5983
856.837	-1.3073
857.0008	-0
857.1645	0.5582
857.3282	-0.258
857.4919	0.1493
857.6556	-0.3615
857.8192	-0.1051
857.9828	-0.2911
858.1465	-0
858.31	-0
858.4736	-0.5798
858.6372	-0
858.8007	0.2737
858.9642	0.3953
859.1277	0.2824
859.2911	-0.5885
859.4546	-0
859.618	-0
859.7814	-0.0656
859.9448	-0
860.1081	0.2478
860.2715	-1.6877
860.4348	-0
860.5981	-0
860.7614	-0.1242
860.9246	0.5084
861.0879	-0
861.2511	-0
861.4143	-0
861.5774	-0.2159
861.7406	-0.2616
861.9037	-0
862.0668	-0
862.2299	-0
862.393	0.1515
862.556	-0
862.7191	-0.0226
862.8821	0.3913
863.0451	-0
863.208	0.1747
863.371	-0
863.5339	0.4465
863.6968	-0
863.8597	-0
864.0225	0.2195
864.1854	0.3073
864.3482	-0
864.511	-0
864.6737	0.103
864.8365	0.888
864.9992	0.9303
865.1619	-0
865.3246	-1.9063
865.4873	-0
865.65	0.8638
865.8126	-0.0827
865.9752	-0.1201
866.1378	0.2523
866.3004	1.8363
866.4629	-1.0414
866.6254	-0.3239
866.7879	-0.2478
866.9504	-0
867.1129	-0.3469
867.2753	-0.3539
867.4377	-0
867.6001	-0.7337
867.7625	0.2875
867.9249	-0
868.0872	0.811
868.2495	-0.009
868.4118	-0
868.5741	-0
868.7363	-0.2848
868.8986	-0.7142
869.0608	-0
869.223	-0.108
869.3851	-0.0634
869.5473	0.0565
869.7094	0.1929
869.8715	-0.7765
870.0336	0.0785
870.1957	-0.5662
870.3577	0.8198
870.5197	-0.2158
870.6817	-0.6923
870.8437	0.4167
871.0057	0.8527
871.1676	-0.0089
871.3295	-0
871.4914	-1.9063
871.6533	-0.3985
871.8151	0.6663
871.977	0.1351
872.1388	0.133
872.3006	-0.3382
872.4623	-0
872.6241	1.9777
872.7858	-0.0758
872.9475	-0
873.1092	1.2357
873.2709	0.3714
873.4325	-1.2518
873.5941	-0
873.7557	-0
873.9173	0.033
874.0789	0.3982
874.2404	-0
874.4019	-0.0495
874.5634	0.3394
874.7249	-0
874.8863	-0
875.0478	-0.1981
875.2092	-0
875.3706	1.9367
875.5319	1.0938
875.6933	-0
875.8546	-0
876.0159	-0.0138
876.1772	-0
876.3385	-0
876.4997	-0
876.6609	-0
876.8221	-0
876.9833	-0.4172
877.1445	0.8284
877.3056	-0
877.4667	-0
877.6278	0.7924
877.7889	-0
877.9499	-0
878.111	-0.3601
878.272	0.2188
878.433	-0
878.5939	-0
878.7549	-0
878.9158	-0.2325
879.0767	0.1769
879.2376	0.4547
879.3984	2.148
879.5593	-0
879.7201	-0
879.8809	-0
880.0417	-0.2861
880.2024	0.1667
880.3632	0.6806
880.5239	-0
880.6846	0.1263
880.8452	-0.2287
881.0059	-0
881.1665	0.1337
881.3271	0.894
881.4877	0.2267
881.6483	-0.9126
881.8088	-0
881.9693	-0
882.1298	-0
882.2903	-0
