Data from D4ACN5uM440nmA_Absorbance_13-50-25-972.txt Node
Date: Fri Feb 21 13:50:25 GMT 2025
User: LASERRRRR
Spectrometer: FLMT03099
Trigger mode: 0
Integration Time (sec): 1.500000E-2
Scans to average: 1
Electric dark correction enabled: true
Nonlinearity correction enabled: false
Boxcar width: 0
XAxis mode: Wavelengths
Number of Pixels in Spectrum: 3648
>>>>>Begin Spectral Data<<<<<
179.3399	-0.7578
179.5586	-0.7578
179.7771	-0.7578
179.9957	-0.4199
180.2143	-0
180.4329	1.0258
180.6514	-0
180.8699	-0.1148
181.0885	-0
181.307	-0.051
181.5255	0.019
181.744	-0
181.9625	0.2726
182.181	1.48
182.3994	-0.4993
182.6179	0.227
182.8363	0.2401
183.0547	-0.2297
183.2732	0.0208
183.4916	0.1512
183.71	0.2264
183.9284	0.1841
184.1467	0.2827
184.3651	0.2711
184.5835	0.1971
184.8018	0.0121
185.0201	0.377
185.2385	0.0994
185.4568	0.1416
185.6751	0.2785
185.8934	0.16
186.1117	-0.1646
186.3299	0.1527
186.5482	0.2296
186.7664	0.0178
186.9847	-0.0679
187.2029	0.3085
187.4211	0.1166
187.6393	0.0511
187.8575	0.1778
188.0757	0.1411
188.2939	0.0718
188.512	0.2831
188.7302	0.1461
188.9483	0.2424
189.1665	0.5053
189.3846	0.2007
189.6027	0.2619
189.8208	0.186
190.0389	0.2894
190.257	0.0339
190.475	0.0497
190.6931	0.0006
190.9111	0.0178
191.1292	0.0327
191.3472	0.1188
191.5652	0.0855
191.7832	0.176
192.0012	0.2422
192.2192	0.3258
192.4371	0.0918
192.6551	0.1458
192.873	0.1904
193.091	0.2542
193.3089	0.1942
193.5268	0.2943
193.7447	0.1776
193.9626	0.2173
194.1805	0.2252
194.3984	0.2886
194.6162	0.2558
194.8341	0.4555
195.0519	0.2429
195.2697	0.2141
195.4875	0.324
195.7054	0.2572
195.9231	0.2395
196.1409	0.3223
196.3587	0.3543
196.5765	0.3115
196.7942	0.2776
197.012	0.3442
197.2297	0.3035
197.4474	0.4767
197.6651	0.3041
197.8828	0.3566
198.1005	0.4651
198.3182	0.4059
198.5358	0.3293
198.7535	0.3967
198.9711	0.447
199.1888	0.3847
199.4064	0.3944
199.624	0.36
199.8416	0.3407
200.0592	0.4191
200.2767	0.4067
200.4943	0.4238
200.7119	0.4168
200.9294	0.4373
201.1469	0.4274
201.3645	0.4493
201.582	0.4177
201.7995	0.4108
202.017	0.4216
202.2344	0.3976
202.4519	0.3901
202.6694	0.3922
202.8868	0.3817
203.1042	0.4323
203.3217	0.3659
203.5391	0.3608
203.7565	0.3646
203.9739	0.361
204.1913	0.3504
204.4086	0.3939
204.626	0.3857
204.8433	0.3509
205.0607	0.3719
205.278	0.3416
205.4953	0.3275
205.7126	0.3436
205.9299	0.3213
206.1472	0.3139
206.3644	0.3138
206.5817	0.3409
206.7989	0.3387
207.0162	0.303
207.2334	0.3315
207.4506	0.3179
207.6678	0.3127
207.885	0.2831
208.1022	0.3002
208.3194	0.2974
208.5365	0.2876
208.7537	0.307
208.9708	0.2851
209.1879	0.2998
209.405	0.2814
209.6222	0.31
209.8392	0.2965
210.0563	0.2707
210.2734	0.2613
210.4905	0.2606
210.7075	0.2764
210.9245	0.2941
211.1416	0.2737
211.3586	0.2514
211.5756	0.2569
211.7926	0.2501
212.0096	0.2787
212.2265	0.2855
212.4435	0.2549
212.6604	0.2465
212.8774	0.2548
213.0943	0.2567
213.3112	0.2434
213.5281	0.245
213.745	0.2423
213.9619	0.2396
214.1788	0.2659
214.3956	0.2192
214.6125	0.2444
214.8293	0.2549
215.0461	0.249
215.2629	0.2526
215.4798	0.2213
215.6965	0.2386
215.9133	0.2352
216.1301	0.2451
216.3469	0.2505
216.5636	0.2567
216.7803	0.2406
216.9971	0.247
217.2138	0.2627
217.4305	0.2589
217.6472	0.2491
217.8639	0.2493
218.0805	0.2567
218.2972	0.2554
218.5138	0.2379
218.7305	0.2604
218.9471	0.2497
219.1637	0.2642
219.3803	0.2532
219.5969	0.248
219.8135	0.2567
220.0301	0.2553
220.2466	0.2488
220.4632	0.2568
220.6797	0.257
220.8962	0.2579
221.1127	0.2669
221.3292	0.2519
221.5457	0.2702
221.7622	0.2626
221.9787	0.2863
222.1951	0.278
222.4116	0.2786
222.628	0.2716
222.8444	0.2798
223.0608	0.2829
223.2772	0.2853
223.4936	0.2715
223.71	0.292
223.9264	0.2799
224.1427	0.2888
224.3591	0.29
224.5754	0.3012
224.7917	0.2932
225.008	0.2865
225.2243	0.3059
225.4406	0.2874
225.6569	0.3054
225.8732	0.311
226.0894	0.3084
226.3057	0.3107
226.5219	0.3071
226.7381	0.3172
226.9543	0.3055
227.1705	0.3137
227.3867	0.3305
227.6029	0.32
227.8191	0.3394
228.0352	0.3413
228.2513	0.3509
228.4675	0.3381
228.6836	0.3396
228.8997	0.3375
229.1158	0.3528
229.3319	0.359
229.548	0.3495
229.764	0.3594
229.9801	0.372
230.1961	0.3824
230.4121	0.3768
230.6282	0.3841
230.8442	0.3773
231.0602	0.3805
231.2761	0.3894
231.4921	0.3897
231.7081	0.405
231.924	0.3979
232.14	0.3933
232.3559	0.4102
232.5718	0.4123
232.7877	0.4029
233.0036	0.407
233.2195	0.4023
233.4353	0.408
233.6512	0.4168
233.867	0.425
234.0829	0.4116
234.2987	0.4229
234.5145	0.4319
234.7303	0.4139
234.9461	0.4202
235.1619	0.4473
235.3776	0.4308
235.5934	0.428
235.8091	0.4417
236.0249	0.4431
236.2406	0.4418
236.4563	0.4435
236.672	0.4293
236.8877	0.4406
237.1034	0.4333
237.319	0.457
237.5347	0.4551
237.7503	0.4478
237.966	0.4604
238.1816	0.4531
238.3972	0.4508
238.6128	0.467
238.8284	0.4677
239.0439	0.4659
239.2595	0.4685
239.475	0.4636
239.6906	0.4647
239.9061	0.4511
240.1216	0.4553
240.3371	0.4595
240.5526	0.4579
240.7681	0.4642
240.9836	0.4618
241.199	0.4512
241.4145	0.4487
241.6299	0.4503
241.8453	0.4415
242.0607	0.4432
242.2761	0.4344
242.4915	0.4289
242.7069	0.4141
242.9223	0.4248
243.1376	0.4151
243.353	0.4174
243.5683	0.4052
243.7836	0.3922
243.9989	0.3832
244.2142	0.3788
244.4295	0.3725
244.6448	0.3753
244.86	0.3576
245.0753	0.3456
245.2905	0.3421
245.5057	0.3297
245.721	0.3369
245.9362	0.3309
246.1514	0.3219
246.3665	0.3151
246.5817	0.299
246.7969	0.2994
247.012	0.2885
247.2271	0.2935
247.4423	0.288
247.6574	0.2839
247.8725	0.2738
248.0876	0.2759
248.3026	0.2726
248.5177	0.2612
248.7328	0.2551
248.9478	0.2533
249.1628	0.2557
249.3779	0.2466
249.5929	0.2434
249.8079	0.2364
250.0228	0.2287
250.2378	0.2337
250.4528	0.2273
250.6677	0.2256
250.8827	0.2185
251.0976	0.2149
251.3125	0.2185
251.5274	0.2146
251.7423	0.2085
251.9572	0.2094
252.172	0.2076
252.3869	0.202
252.6017	0.2041
252.8166	0.2045
253.0314	0.199
253.2462	0.2006
253.461	0.1937
253.6758	0.1944
253.8906	0.189
254.1053	0.1997
254.3201	0.1924
254.5348	0.1816
254.7496	0.1809
254.9643	0.1957
255.179	0.1881
255.3937	0.1901
255.6083	0.1903
255.823	0.1822
256.0377	0.1807
256.2523	0.1841
256.467	0.1844
256.6816	0.1882
256.8962	0.1801
257.1108	0.1827
257.3254	0.1835
257.54	0.1771
257.7545	0.1905
257.9691	0.1841
258.1836	0.1742
258.3981	0.1784
258.6127	0.1734
258.8272	0.1824
259.0417	0.1713
259.2561	0.1788
259.4706	0.1771
259.6851	0.1724
259.8995	0.1747
260.114	0.1769
260.3284	0.1736
260.5428	0.173
260.7572	0.1787
260.9716	0.1827
261.186	0.1802
261.4003	0.1742
261.6147	0.1779
261.829	0.1771
262.0433	0.1759
262.2577	0.1788
262.472	0.1796
262.6863	0.1858
262.9005	0.1757
263.1148	0.1817
263.3291	0.1761
263.5433	0.1836
263.7576	0.1809
263.9718	0.1798
264.186	0.1822
264.4002	0.184
264.6144	0.1901
264.8286	0.1833
265.0427	0.187
265.2569	0.1846
265.471	0.1846
265.6851	0.1843
265.8993	0.1855
266.1134	0.1812
266.3275	0.187
266.5415	0.1828
266.7556	0.1863
266.9697	0.1847
267.1837	0.1878
267.3978	0.1868
267.6118	0.1812
267.8258	0.1856
268.0398	0.1865
268.2538	0.1888
268.4677	0.1804
268.6817	0.183
268.8957	0.1781
269.1096	0.1737
269.3235	0.1824
269.5374	0.1844
269.7514	0.1817
269.9652	0.1902
270.1791	0.1773
270.393	0.1794
270.6068	0.185
270.8207	0.1775
271.0345	0.1738
271.2483	0.1794
271.4622	0.1831
271.676	0.1734
271.8897	0.1784
272.1035	0.1798
272.3173	0.1809
272.531	0.1784
272.7448	0.1754
272.9585	0.1789
273.1722	0.1739
273.3859	0.1814
273.5996	0.1794
273.8133	0.1787
274.0269	0.1739
274.2406	0.1783
274.4542	0.1746
274.6679	0.1807
274.8815	0.1859
275.0951	0.1866
275.3087	0.1894
275.5223	0.1839
275.7358	0.185
275.9494	0.1834
276.1629	0.1856
276.3765	0.1878
276.59	0.1815
276.8035	0.1822
277.017	0.1871
277.2305	0.1887
277.444	0.1938
277.6574	0.1888
277.8709	0.1946
278.0843	0.1916
278.2978	0.194
278.5112	0.1919
278.7246	0.1855
278.938	0.1875
279.1513	0.1906
279.3647	0.1925
279.5781	0.1826
279.7914	0.1874
280.0047	0.186
280.2181	0.191
280.4314	0.1884
280.6447	0.1919
280.8579	0.185
281.0712	0.186
281.2845	0.1914
281.4977	0.186
281.711	0.1847
281.9242	0.1847
282.1374	0.1851
282.3506	0.1881
282.5638	0.1831
282.7769	0.1809
282.9901	0.1881
283.2033	0.1839
283.4164	0.1833
283.6295	0.1874
283.8426	0.1802
284.0557	0.1883
284.2688	0.1857
284.4819	0.184
284.695	0.1879
284.908	0.1839
285.1211	0.1858
285.3341	0.1806
285.5471	0.1907
285.7601	0.1883
285.9731	0.1891
286.1861	0.1879
286.3991	0.1873
286.612	0.1898
286.825	0.1869
287.0379	0.1919
287.2508	0.1884
287.4637	0.1892
287.6766	0.1848
287.8895	0.1822
288.1024	0.1895
288.3152	0.1921
288.5281	0.1844
288.7409	0.1939
288.9538	0.1887
289.1666	0.1837
289.3794	0.1806
289.5922	0.1783
289.8049	0.1889
290.0177	0.1891
290.2304	0.1912
290.4432	0.1901
290.6559	0.1909
290.8686	0.1878
291.0813	0.1915
291.294	0.1894
291.5067	0.1807
291.7194	0.1917
291.932	0.1871
292.1447	0.181
292.3573	0.1868
292.5699	0.1888
292.7825	0.1857
292.9951	0.1941
293.2077	0.1877
293.4203	0.1894
293.6328	0.1872
293.8454	0.1874
294.0579	0.1868
294.2704	0.1915
294.4829	0.1837
294.6954	0.1937
294.9079	0.1845
295.1204	0.1813
295.3328	0.1926
295.5453	0.1865
295.7577	0.1873
295.9701	0.1896
296.1825	0.1855
296.3949	0.1836
296.6073	0.186
296.8197	0.1937
297.0321	0.194
297.2444	0.1841
297.4567	0.1905
297.6691	0.1794
297.8814	0.1849
298.0937	0.1924
298.306	0.1827
298.5182	0.1879
298.7305	0.1898
298.9428	0.1883
299.155	0.1826
299.3672	0.1913
299.5794	0.1859
299.7916	0.1882
300.0038	0.186
300.216	0.1849
300.4282	0.1928
300.6403	0.1939
300.8525	0.1904
301.0646	0.1942
301.2767	0.1904
301.4888	0.189
301.7009	0.1945
301.913	0.1888
302.125	0.1842
302.3371	0.1892
302.5491	0.1888
302.7612	0.1916
302.9732	0.1968
303.1852	0.1902
303.3972	0.1875
303.6092	0.1867
303.8211	0.186
304.0331	0.1919
304.245	0.1884
304.457	0.1841
304.6689	0.1856
304.8808	0.1877
305.0927	0.1859
305.3046	0.1857
305.5164	0.1818
305.7283	0.1834
305.9401	0.1709
306.152	0.1789
306.3638	0.1792
306.5756	0.1782
306.7874	0.1745
306.9992	0.1784
307.2109	0.173
307.4227	0.1685
307.6344	0.1742
307.8462	0.1594
308.0579	0.1708
308.2696	0.1679
308.4813	0.1669
308.693	0.1636
308.9046	0.1687
309.1163	0.1591
309.328	0.1614
309.5396	0.1555
309.7512	0.1574
309.9628	0.1533
310.1744	0.1531
310.386	0.1498
310.5976	0.1546
310.8091	0.1468
311.0207	0.1472
311.2322	0.1429
311.4437	0.1415
311.6552	0.1532
311.8667	0.1496
312.0782	0.1412
312.2897	0.1484
312.5012	0.1402
312.7126	0.139
312.924	0.1415
313.1355	0.141
313.3469	0.1393
313.5583	0.1378
313.7696	0.1352
313.981	0.1379
314.1924	0.1323
314.4037	0.1324
314.6151	0.1308
314.8264	0.1393
315.0377	0.1378
315.249	0.1374
315.4603	0.1266
315.6716	0.1315
315.8828	0.1374
316.0941	0.1353
316.3053	0.1305
316.5165	0.135
316.7277	0.1331
316.9389	0.1325
317.1501	0.1287
317.3613	0.1293
317.5724	0.1278
317.7836	0.1247
317.9947	0.1206
318.2058	0.1295
318.417	0.1241
318.6281	0.1281
318.8391	0.1296
319.0502	0.1342
319.2613	0.1249
319.4723	0.1298
319.6834	0.1294
319.8944	0.1275
320.1054	0.1325
320.3164	0.1239
320.5274	0.123
320.7383	0.1284
320.9493	0.132
321.1602	0.1324
321.3712	0.1285
321.5821	0.124
321.793	0.1362
322.0039	0.1293
322.2148	0.1313
322.4257	0.1271
322.6365	0.1242
322.8474	0.1307
323.0582	0.1285
323.269	0.1296
323.4798	0.1295
323.6906	0.1243
323.9014	0.1277
324.1122	0.1244
324.3229	0.1333
324.5337	0.1306
324.7444	0.1283
324.9551	0.1299
325.1658	0.1319
325.3765	0.1283
325.5872	0.1317
325.7979	0.1288
326.0085	0.1277
326.2192	0.1303
326.4298	0.1349
326.6404	0.1364
326.851	0.1334
327.0616	0.1337
327.2722	0.1344
327.4828	0.1379
327.6933	0.1447
327.9039	0.133
328.1144	0.1376
328.3249	0.1393
328.5354	0.1416
328.7459	0.1384
328.9564	0.133
329.1669	0.1444
329.3773	0.1438
329.5878	0.1376
329.7982	0.1429
330.0086	0.14
330.219	0.1411
330.4294	0.1439
330.6398	0.1401
330.8502	0.144
331.0605	0.1395
331.2708	0.1394
331.4812	0.1362
331.6915	0.1448
331.9018	0.144
332.1121	0.1422
332.3224	0.1405
332.5326	0.1336
332.7429	0.1398
332.9531	0.1465
333.1633	0.1383
333.3735	0.1383
333.5837	0.1417
333.7939	0.1386
334.0041	0.1485
334.2143	0.1381
334.4244	0.1501
334.6346	0.1425
334.8447	0.1408
335.0548	0.1459
335.2649	0.1417
335.475	0.1404
335.685	0.141
335.8951	0.1369
336.1051	0.1496
336.3152	0.1387
336.5252	0.1412
336.7352	0.1382
336.9452	0.1425
337.1552	0.1421
337.3652	0.147
337.5751	0.14
337.7851	0.1409
337.995	0.1392
338.2049	0.1446
338.4148	0.1453
338.6247	0.147
338.8346	0.1439
339.0445	0.1434
339.2543	0.1387
339.4642	0.1419
339.674	0.1449
339.8838	0.1494
340.0936	0.1446
340.3034	0.1456
340.5132	0.1474
340.7229	0.1482
340.9327	0.1555
341.1424	0.1512
341.3522	0.1415
341.5619	0.1555
341.7716	0.1545
341.9813	0.1539
342.1909	0.1516
342.4006	0.1509
342.6102	0.1479
342.8199	0.1538
343.0295	0.1509
343.2391	0.1524
343.4487	0.1547
343.6583	0.161
343.8679	0.1544
344.0774	0.1514
344.287	0.1554
344.4965	0.1562
344.706	0.159
344.9155	0.1583
345.125	0.1583
345.3345	0.1649
345.544	0.1659
345.7534	0.1658
345.9629	0.1654
346.1723	0.1686
346.3817	0.1683
346.5911	0.1692
346.8005	0.1676
347.0099	0.168
347.2193	0.1759
347.4286	0.1772
347.638	0.1728
347.8473	0.1805
348.0566	0.1712
348.2659	0.1671
348.4752	0.171
348.6845	0.1689
348.8937	0.1706
349.103	0.176
349.3122	0.1744
349.5214	0.1801
349.7306	0.1804
349.9398	0.1797
350.149	0.1721
350.3582	0.1828
350.5674	0.1796
350.7765	0.1852
350.9856	0.1745
351.1948	0.1803
351.4039	0.1812
351.613	0.1797
351.822	0.1862
352.0311	0.1795
352.2402	0.1839
352.4492	0.1734
352.6582	0.1787
352.8672	0.1867
353.0762	0.1886
353.2852	0.1803
353.4942	0.1826
353.7032	0.1844
353.9121	0.184
354.1211	0.188
354.33	0.1847
354.5389	0.1801
354.7478	0.184
354.9567	0.1869
355.1655	0.179
355.3744	0.181
355.5833	0.1841
355.7921	0.1886
356.0009	0.1879
356.2097	0.1785
356.4185	0.1871
356.6273	0.1834
356.8361	0.186
357.0448	0.1846
357.2536	0.1918
357.4623	0.1901
357.671	0.1933
357.8797	0.1873
358.0884	0.1792
358.2971	0.1868
358.5057	0.1945
358.7144	0.1969
358.923	0.196
359.1316	0.1946
359.3402	0.191
359.5488	0.1955
359.7574	0.2052
359.966	0.2017
360.1746	0.1895
360.3831	0.208
360.5916	0.2029
360.8002	0.2046
361.0087	0.2033
361.2172	0.1998
361.4256	0.2016
361.6341	0.2067
361.8426	0.2065
362.051	0.2021
362.2594	0.2011
362.4678	0.2033
362.6762	0.2092
362.8846	0.211
363.093	0.2066
363.3014	0.2129
363.5097	0.2087
363.718	0.2152
363.9264	0.2149
364.1347	0.2118
364.343	0.2126
364.5513	0.2184
364.7595	0.2185
364.9678	0.2076
365.176	0.2225
365.3842	0.2178
365.5925	0.2177
365.8007	0.2232
366.0089	0.2211
366.217	0.2215
366.4252	0.2269
366.6333	0.2204
366.8415	0.2304
367.0496	0.226
367.2577	0.2315
367.4658	0.2193
367.6739	0.2217
367.882	0.2351
368.09	0.2256
368.2981	0.2275
368.5061	0.2358
368.7141	0.2244
368.9221	0.2399
369.1301	0.2376
369.3381	0.2397
369.5461	0.2377
369.754	0.2358
369.962	0.2372
370.1699	0.2375
370.3778	0.2419
370.5857	0.2392
370.7936	0.2484
371.0015	0.2378
371.2093	0.2417
371.4172	0.2412
371.625	0.2448
371.8328	0.2365
372.0406	0.2463
372.2484	0.2451
372.4562	0.2502
372.664	0.2483
372.8717	0.2448
373.0795	0.2516
373.2872	0.2477
373.4949	0.2601
373.7026	0.2474
373.9103	0.2471
374.118	0.2602
374.3256	0.2541
374.5333	0.2496
374.7409	0.2512
374.9485	0.2585
375.1561	0.2523
375.3637	0.2495
375.5713	0.2588
375.7789	0.2566
375.9864	0.2515
376.194	0.2658
376.4015	0.2571
376.609	0.2692
376.8165	0.2629
377.024	0.259
377.2315	0.2606
377.4389	0.2612
377.6464	0.2644
377.8538	0.2703
378.0612	0.2696
378.2686	0.2659
378.476	0.2747
378.6834	0.2614
378.8908	0.2713
379.0981	0.2711
379.3055	0.267
379.5128	0.2731
379.7201	0.266
379.9274	0.266
380.1347	0.2718
380.342	0.2714
380.5492	0.2733
380.7565	0.278
380.9637	0.2857
381.1709	0.2771
381.3781	0.2848
381.5853	0.2687
381.7925	0.2765
381.9997	0.2789
382.2068	0.2792
382.4139	0.2801
382.6211	0.2761
382.8282	0.2846
383.0353	0.2881
383.2424	0.2813
383.4494	0.2808
383.6565	0.2787
383.8635	0.2799
384.0706	0.2841
384.2776	0.2812
384.4846	0.2917
384.6916	0.2843
384.8986	0.285
385.1055	0.2898
385.3125	0.282
385.5194	0.2907
385.7263	0.2894
385.9333	0.2933
386.1402	0.2825
386.347	0.2856
386.5539	0.2883
386.7608	0.2944
386.9676	0.2885
387.1744	0.283
387.3813	0.2889
387.5881	0.2773
387.7948	0.2882
388.0016	0.3036
388.2084	0.2822
388.4151	0.2843
388.6219	0.2798
388.8286	0.2767
389.0353	0.2847
389.242	0.2931
389.4487	0.2764
389.6553	0.2659
389.862	0.2717
390.0686	0.2773
390.2753	0.2754
390.4819	0.2827
390.6885	0.2784
390.8951	0.2712
391.1016	0.2681
391.3082	0.2764
391.5147	0.2799
391.7213	0.2625
391.9278	0.2732
392.1343	0.2688
392.3408	0.2684
392.5473	0.2677
392.7537	0.267
392.9602	0.2617
393.1666	0.2564
393.373	0.2602
393.5794	0.2668
393.7858	0.2704
393.9922	0.2606
394.1986	0.2557
394.4049	0.2545
394.6113	0.2521
394.8176	0.2533
395.0239	0.2471
395.2302	0.2588
395.4365	0.2668
395.6428	0.2473
395.8491	0.2583
396.0553	0.2439
396.2615	0.2505
396.4678	0.2571
396.674	0.2452
396.8802	0.2447
397.0863	0.2465
397.2925	0.2484
397.4987	0.2445
397.7048	0.252
397.9109	0.2365
398.117	0.2378
398.3231	0.2334
398.5292	0.2375
398.7353	0.2483
398.9413	0.2385
399.1474	0.2442
399.3534	0.2488
399.5594	0.2399
399.7654	0.243
399.9714	0.246
400.1774	0.2357
400.3833	0.2401
400.5893	0.2383
400.7952	0.2397
401.0011	0.2428
401.207	0.2416
401.4129	0.2381
401.6188	0.235
401.8247	0.2527
402.0305	0.2344
402.2364	0.2323
402.4422	0.2486
402.648	0.2394
402.8538	0.2436
403.0596	0.246
403.2654	0.2448
403.4711	0.2383
403.6768	0.2362
403.8826	0.2463
404.0883	0.2459
404.294	0.2363
404.4997	0.2403
404.7054	0.2431
404.911	0.2404
405.1167	0.2351
405.3223	0.2285
405.5279	0.2368
405.7335	0.2431
405.9391	0.2344
406.1447	0.2454
406.3502	0.2379
406.5558	0.2457
406.7613	0.2405
406.9668	0.2345
407.1724	0.2402
407.3778	0.237
407.5833	0.225
407.7888	0.235
407.9942	0.2364
408.1997	0.2463
408.4051	0.2434
408.6105	0.2396
408.8159	0.2391
409.0213	0.2448
409.2267	0.2367
409.432	0.2443
409.6374	0.233
409.8427	0.2438
410.048	0.2369
410.2533	0.2497
410.4586	0.2271
410.6639	0.2481
410.8691	0.2375
411.0744	0.2361
411.2796	0.2349
411.4848	0.2321
411.69	0.2262
411.8952	0.2412
412.1004	0.2412
412.3056	0.2302
412.5107	0.2444
412.7158	0.2451
412.921	0.2438
413.1261	0.2367
413.3312	0.2396
413.5362	0.244
413.7413	0.2382
413.9464	0.2246
414.1514	0.2231
414.3564	0.2376
414.5614	0.2347
414.7664	0.2281
414.9714	0.2317
415.1764	0.2396
415.3813	0.2262
415.5863	0.2389
415.7912	0.2236
415.9961	0.2455
416.201	0.2435
416.4059	0.2309
416.6108	0.2314
416.8156	0.2361
417.0205	0.2398
417.2253	0.2314
417.4301	0.2405
417.6349	0.2345
417.8397	0.2322
418.0445	0.2233
418.2492	0.2368
418.454	0.2212
418.6587	0.2356
418.8634	0.2267
419.0681	0.2336
419.2728	0.2294
419.4775	0.2313
419.6822	0.2213
419.8868	0.2224
420.0915	0.2244
420.2961	0.2276
420.5007	0.227
420.7053	0.223
420.9099	0.2239
421.1144	0.2199
421.319	0.2172
421.5235	0.2104
421.728	0.2275
421.9325	0.2172
422.137	0.2171
422.3415	0.218
422.546	0.2002
422.7504	0.2188
422.9549	0.2201
423.1593	0.2123
423.3637	0.217
423.5681	0.2103
423.7725	0.2028
423.9769	0.2171
424.1812	0.2025
424.3856	0.2077
424.5899	0.2062
424.7942	0.2051
424.9985	0.2036
425.2028	0.2135
425.4071	0.2067
425.6113	0.1992
425.8156	0.2006
426.0198	0.2103
426.224	0.2081
426.4282	0.1952
426.6324	0.1934
426.8366	0.1968
427.0407	0.1915
427.2449	0.1951
427.449	0.1979
427.6531	0.2009
427.8572	0.2027
428.0613	0.1959
428.2654	0.1937
428.4694	0.1801
428.6735	0.1834
428.8775	0.1819
429.0815	0.183
429.2855	0.1781
429.4895	0.1808
429.6935	0.1806
429.8975	0.1742
430.1014	0.183
430.3053	0.1841
430.5093	0.1783
430.7132	0.1716
430.9171	0.1663
431.1209	0.1831
431.3248	0.1644
431.5286	0.1682
431.7325	0.1828
431.9363	0.1628
432.1401	0.1626
432.3439	0.1636
432.5477	0.1554
432.7514	0.1532
432.9552	0.1557
433.1589	0.1494
433.3627	0.1524
433.5664	0.1434
433.7701	0.1629
433.9737	0.1638
434.1774	0.1449
434.3811	0.1413
434.5847	0.144
434.7883	0.1417
434.9919	0.1388
435.1955	0.1454
435.3991	0.1458
435.6027	0.1398
435.8062	0.151
436.0098	0.1261
436.2133	0.132
436.4168	0.1317
436.6203	0.1205
436.8238	0.1305
437.0272	0.1225
437.2307	0.1289
437.4341	0.1232
437.6375	0.127
437.841	0.1262
438.0443	0.1291
438.2477	0.1064
438.4511	0.1086
438.6545	0.1198
438.8578	0.1177
439.0611	0.1201
439.2644	0.1085
439.4677	0.1101
439.671	0.0968
439.8743	0.1024
440.0775	0.1025
440.2808	0.1045
440.484	0.1057
440.6872	0.1023
440.8904	0.0883
441.0936	0.0977
441.2967	0.0929
441.4999	0.0835
441.703	0.0904
441.9062	0.0954
442.1093	0.0979
442.3124	0.0807
442.5155	0.086
442.7185	0.0824
442.9216	0.0886
443.1246	0.085
443.3276	0.0796
443.5307	0.0779
443.7337	0.079
443.9366	0.0783
444.1396	0.073
444.3426	0.0708
444.5455	0.0732
444.7484	0.0684
444.9513	0.0708
445.1542	0.0684
445.3571	0.0696
445.56	0.0663
445.7628	0.0708
445.9657	0.0692
446.1685	0.0677
446.3713	0.0725
446.5741	0.0696
446.7769	0.0631
446.9797	0.061
447.1824	0.0598
447.3852	0.0498
447.5879	0.0637
447.7906	0.0476
447.9933	0.0564
448.196	0.0536
448.3986	0.0538
448.6013	0.0477
448.8039	0.053
449.0066	0.0635
449.2092	0.057
449.4118	0.0548
449.6143	0.0494
449.8169	0.0472
450.0195	0.0493
450.222	0.0516
450.4245	0.0521
450.627	0.0456
450.8295	0.0455
451.032	0.0498
451.2345	0.0417
451.4369	0.0437
451.6394	0.0405
451.8418	0.0418
452.0442	0.0434
452.2466	0.0314
452.449	0.0349
452.6513	0.0284
452.8537	0.0253
453.056	0.0342
453.2583	0.0379
453.4607	0.0271
453.663	0.0335
453.8652	0.0285
454.0675	0.0351
454.2697	0.0288
454.472	0.0383
454.6742	0.0355
454.8764	0.0268
455.0786	0.029
455.2808	0.0256
455.4829	0.0331
455.6851	0.0293
455.8872	0.0172
456.0893	0.0309
456.2915	0.0154
456.4935	0.0284
456.6956	0.0174
456.8977	0.0225
457.0997	0.0291
457.3018	0.0225
457.5038	0.032
457.7058	0.0263
457.9078	0.0278
458.1098	0.0229
458.3117	0.0323
458.5137	0.0103
458.7156	0.024
458.9175	0.0222
459.1194	0.0218
459.3213	0.0224
459.5232	0.0186
459.725	0.0104
459.9269	0.0189
460.1287	0.016
460.3305	0.0259
460.5323	0.0212
460.7341	0.0227
460.9359	0.0136
461.1376	0.0181
461.3394	0.0197
461.5411	0.0177
461.7428	0.0107
461.9445	0.0161
462.1462	0.0101
462.3479	0.0145
462.5495	0.0191
462.7512	0.0199
462.9528	0.0171
463.1544	0.0087
463.356	0.0046
463.5576	0.0247
463.7592	0.016
463.9607	0.0125
464.1623	0.015
464.3638	0.0157
464.5653	0.0206
464.7668	0.018
464.9683	0.0099
465.1697	0.0118
465.3712	0.0081
465.5726	0.0112
465.7741	0.0194
465.9755	0.0075
466.1769	0.0152
466.3782	0.0037
466.5796	0.0171
466.7809	0.0154
466.9823	0.0086
467.1836	0.0086
467.3849	0.0088
467.5862	0.0033
467.7875	0.0166
467.9887	0.0119
468.19	0.0113
468.3912	0.018
468.5924	-0.0001
468.7936	0.0158
468.9948	0.0061
469.196	0.0082
469.3972	0.0043
469.5983	0.0085
469.7994	0.01
470.0006	0.0076
470.2017	0.0132
470.4027	0.024
470.6038	0.0135
470.8049	0.0192
471.0059	0.0122
471.2069	0.0198
471.408	0.0144
471.6089	0.015
471.8099	0.0086
472.0109	0.0019
472.2119	0.014
472.4128	0.0067
472.6137	0.0197
472.8146	0.0098
473.0155	0.0213
473.2164	0.0157
473.4173	0.0041
473.6181	0.0024
473.819	0.0224
474.0198	0.0087
474.2206	0.0061
474.4214	0.0016
474.6222	-0.0013
474.8229	0.01
475.0237	0.0155
475.2244	0.0116
475.4251	0.004
475.6258	0.0051
475.8265	0.0154
476.0272	-0.0015
476.2278	0.0079
476.4285	0.0074
476.6291	-0.0021
476.8297	0.0077
477.0303	0.0048
477.2309	0.0051
477.4315	0.0072
477.632	-0.0025
477.8326	0.0098
478.0331	0.0088
478.2336	0.0028
478.4341	0.0168
478.6346	0.0047
478.8351	-0.001
479.0355	0.0082
479.236	0.0138
479.4364	0.0115
479.6368	0.0087
479.8372	0.0076
480.0376	0.0019
480.2379	0.0063
480.4383	0.0078
480.6386	0.0029
480.8389	0.0053
481.0392	0.0038
481.2395	0.0172
481.4398	0.0152
481.6401	0.0109
481.8403	0.0002
482.0405	0.0086
482.2408	0.0056
482.441	0.0088
482.6411	0.0077
482.8413	0.0091
483.0415	0.0093
483.2416	0.0052
483.4417	0.003
483.6419	0.0069
483.8419	-0.0006
484.042	0.001
484.2421	0.0069
484.4422	0.0033
484.6422	0.0038
484.8422	0.0018
485.0422	0.0075
485.2422	0.0001
485.4422	0.0026
485.6422	0.0028
485.8421	0.0065
486.042	0.0113
486.242	0.0016
486.4419	0.0027
486.6417	0.0041
486.8416	0.007
487.0415	-0.0003
487.2413	0.0014
487.4411	0.0036
487.641	0.0042
487.8408	0.0072
488.0405	0.0113
488.2403	0.0001
488.4401	-0.0006
488.6398	0.008
488.8395	0.0076
489.0392	0.0091
489.2389	0.002
489.4386	0.001
489.6383	0.0084
489.8379	0.0055
490.0376	0.004
490.2372	0.0079
490.4368	0.0016
490.6364	-0.0039
490.836	0.0109
491.0355	-0.0005
491.2351	0.0045
491.4346	0.0021
491.6341	-0.004
491.8336	0.0115
492.0331	0.0083
492.2326	0.0014
492.432	0.0057
492.6315	0.0013
492.8309	0.0076
493.0303	0.0018
493.2297	0.0086
493.4291	0.0051
493.6284	0.0147
493.8278	0.0045
494.0271	0.0117
494.2264	-0.0029
494.4257	0.0106
494.625	0.0085
494.8243	-0.0042
495.0236	0.0035
495.2228	0.0067
495.422	0.007
495.6213	0.0088
495.8205	0.013
496.0196	0.0061
496.2188	0.0041
496.418	-0.0014
496.6171	0.0074
496.8162	0.0053
497.0153	0.011
497.2144	0.0032
497.4135	0.0007
497.6126	0.0068
497.8116	0.0057
498.0107	0.0087
498.2097	0.0091
498.4087	0.002
498.6077	-0.005
498.8067	0.0058
499.0056	0.0009
499.2046	0.0098
499.4035	0.0033
499.6024	-0.002
499.8013	0.0113
500.0002	0.0083
500.199	0.0178
500.3979	-0.003
500.5967	0.0087
500.7956	0.0112
500.9944	0.0111
501.1932	0.0127
501.3919	0.0079
501.5907	0.0102
501.7895	-0.0007
501.9882	0.0028
502.1869	0.0096
502.3856	0.007
502.5843	0.0028
502.783	0.0024
502.9816	0.0086
503.1803	0.0068
503.3789	0.0095
503.5775	0.0097
503.7761	-0.0007
503.9747	0.0111
504.1732	0.0013
504.3718	0.0087
504.5703	0.0064
504.7689	0.0001
504.9674	0.0026
505.1658	-0.0023
505.3643	0.0043
505.5628	0.0108
505.7612	0.0133
505.9597	-0.0031
506.1581	0.0072
506.3565	-0.0002
506.5549	0.0039
506.7532	0.0028
506.9516	0.0098
507.1499	0.005
507.3482	0.0051
507.5465	0.0058
507.7448	0.0029
507.9431	0.0036
508.1414	-0.0007
508.3396	0.0036
508.5379	0.0017
508.7361	0.0053
508.9343	0.0115
509.1325	0.0205
509.3306	0.0013
509.5288	0.0005
509.7269	0.0107
509.9251	0.0102
510.1232	0.0102
510.3213	0.0108
510.5193	0.0049
510.7174	-0.0025
510.9154	0.0116
511.1135	0.0058
511.3115	0.001
511.5095	0.0033
511.7075	0.0059
511.9055	0.0121
512.1034	0.0017
512.3014	0.0026
512.4993	0.0155
512.6972	0.0019
512.8951	0.0143
513.093	0.0087
513.2908	0.0104
513.4887	0.0047
513.6865	0.0097
513.8844	0.014
514.0822	0.0073
514.2799	-0.0032
514.4777	-0.0004
514.6755	0.001
514.8732	-0.0012
515.0709	-0.0006
515.2687	0.0116
515.4664	0.0063
515.664	0.0057
515.8617	0.0107
516.0594	0.0067
516.257	0.0107
516.4546	0.0144
516.6522	0.0065
516.8498	0.011
517.0474	0.001
517.2449	-0.0037
517.4425	0.0066
517.64	0.0116
517.8375	0.0062
518.035	-0.0028
518.2325	0.0004
518.43	-0.001
518.6274	0.0061
518.8249	-0.0021
519.0223	0.0132
519.2197	0.0108
519.4171	-0.0071
519.6145	0.0132
519.8118	-0.0067
520.0092	-0.0038
520.2065	0.0112
520.4038	0.0051
520.6011	0.0102
520.7984	0.0129
520.9956	0.01
521.1929	0.012
521.3901	0.009
521.5874	0.0107
521.7846	0.0006
521.9818	0.0009
522.1789	0.0127
522.3761	0.0154
522.5732	0.0082
522.7704	-0.0044
522.9675	-0.005
523.1646	0.0013
523.3617	0.0115
523.5587	0.0001
523.7558	-0.0005
523.9528	0.0134
524.1498	0.0016
524.3468	0.0056
524.5438	0.0005
524.7408	0.0084
524.9378	0.0187
525.1347	0.0085
525.3316	0.0096
525.5285	0.0112
525.7254	0.0092
525.9223	0.0165
526.1192	0.0114
526.316	0.0055
526.5129	0.0042
526.7097	0.0037
526.9065	0.0059
527.1033	0.0052
527.3	0.0074
527.4968	0.0143
527.6935	-0.0061
527.8903	-0.0003
528.087	0.0062
528.2837	0.008
528.4804	0.0083
528.677	0.0011
528.8737	0.0108
529.0703	0.0021
529.2669	0.0091
529.4635	0.0063
529.6601	-0.0047
529.8567	-0.0033
530.0532	0.0041
530.2498	0.0025
530.4463	-0.009
530.6428	0.0081
530.8393	0.0132
531.0358	0.0079
531.2322	-0.0042
531.4287	0.0045
531.6251	-0.0044
531.8215	0.008
532.0179	0.0083
532.2143	0.0051
532.4107	0.018
532.607	0.0038
532.8034	0.0063
532.9997	0.0044
533.196	0.0057
533.3923	0.013
533.5886	0.0137
533.7848	0.0015
533.9811	0.0166
534.1773	-0.0017
534.3735	0.0066
534.5697	-0.0006
534.7659	0.0067
534.9621	0.01
535.1582	0.0098
535.3544	0.0091
535.5505	0.005
535.7466	0.0131
535.9427	0.0039
536.1387	0.004
536.3348	0.0051
536.5308	0.0053
536.7269	-0.0018
536.9229	0.0086
537.1189	0.0104
537.3148	-0.0057
537.5108	0.0034
537.7068	0.0133
537.9027	-0.0065
538.0986	0.0007
538.2945	-0.0063
538.4904	-0.0012
538.6863	0.0117
538.8821	0.0126
539.078	0.0036
539.2738	0.0009
539.4696	-0.0057
539.6654	0.0076
539.8611	0.003
540.0569	0.0021
540.2526	0.0057
540.4484	0.0022
540.6441	0.0072
540.8398	0.0216
541.0355	-0.0048
541.2311	0.0088
541.4268	0.0014
541.6224	0.0103
541.818	0.0138
542.0136	0.0107
542.2092	0.0082
542.4048	0.0074
542.6003	0.0031
542.7959	0.0139
542.9914	0.0061
543.1869	0.0087
543.3824	0.0108
543.5779	0.013
543.7734	0.0162
543.9688	0.0008
544.1642	-0.0024
544.3596	0.0055
544.555	-0.0018
544.7504	0.0209
544.9458	0.0049
545.1411	0.009
545.3365	0.0085
545.5318	0.0077
545.7271	0.0084
545.9224	0.0042
546.1177	0.007
546.3129	0.0147
546.5081	0.0082
546.7034	0.0091
546.8986	0.0078
547.0938	0.0016
547.289	0.0052
547.4841	0.0053
547.6793	0.0044
547.8744	0.0108
548.0695	-0.0005
548.2646	0.0095
548.4597	0.0052
548.6548	0.0165
548.8498	0.0048
549.0448	0.0024
549.2399	0.0105
549.4349	0.0043
549.6298	0.0137
549.8248	0.0062
550.0198	0.0055
550.2147	0.0107
550.4096	0.0009
550.6045	0.0016
550.7994	0.0061
550.9943	0.0148
551.1892	-0.0047
551.384	0.0039
551.5788	-0.003
551.7737	0.0104
551.9685	0.005
552.1632	-0.0011
552.358	0.0068
552.5528	0.012
552.7475	0.0015
552.9422	0.0035
553.1369	0.0062
553.3316	0.0033
553.5263	0.0065
553.7209	0.003
553.9156	0.0149
554.1102	0.0089
554.3048	0.0014
554.4994	0.0068
554.694	0.0092
554.8885	0.0101
555.0831	0.0159
555.2776	0.0029
555.4721	0.0023
555.6666	0.0067
555.8611	0.0068
556.0555	0.0036
556.25	0.0034
556.4444	0.0008
556.6388	-0.0002
556.8332	0.005
557.0276	0.009
557.222	-0.0052
557.4163	0.0045
557.6107	0.0004
557.805	0.0079
557.9993	-0.0006
558.1936	-0.003
558.3879	0.0033
558.5821	-0.004
558.7764	-0.0004
558.9706	0.002
559.1648	-0.0006
559.359	0.0015
559.5532	-0.0015
559.7473	-0.0008
559.9415	0.01
560.1356	0.0206
560.3297	-0.0019
560.5238	0.0133
560.7179	0.0047
560.9119	0.0048
561.106	-0.0021
561.3	0.0087
561.494	0.0015
561.688	-0.0038
561.882	-0.004
562.076	0.018
562.2699	0.0089
562.4639	0.0167
562.6578	0.0077
562.8517	0.003
563.0456	0.0029
563.2395	0.0052
563.4333	0.004
563.6272	0.0024
563.821	-0.0055
564.0148	0.0013
564.2086	0.0005
564.4024	0.0142
564.5961	0.0076
564.7899	0.0134
564.9836	0.002
565.1773	0.0165
565.371	-0.0043
565.5647	0.0116
565.7584	0.0151
565.952	-0.0013
566.1456	0.0025
566.3393	0.0095
566.5329	0.0057
566.7264	0.0083
566.92	0.0025
567.1136	0.0005
567.3071	-0.0025
567.5006	0.0147
567.6941	0.0001
567.8876	0.0065
568.0811	0.0179
568.2745	0.0023
568.468	0.006
568.6614	0.0101
568.8548	0.0079
569.0482	0.0069
569.2416	0.0043
569.4349	0.006
569.6283	0.003
569.8216	0.0077
570.0149	0.0041
570.2082	0.0133
570.4015	0.0008
570.5947	0.0065
570.788	0.0092
570.9812	0.004
571.1744	0.0064
571.3676	0.0086
571.5608	0.0036
571.754	0.0124
571.9471	0.0066
572.1402	0.0052
572.3333	0.0102
572.5264	0.0065
572.7195	0.0039
572.9126	0.0043
573.1057	0.0024
573.2987	0.0038
573.4917	0.0064
573.6847	0.0049
573.8777	0.0074
574.0707	0.0064
574.2636	0.0034
574.4566	0.0055
574.6495	0.0058
574.8424	0.0069
575.0353	0.0068
575.2281	0.01
575.421	0.0038
575.6138	0.0053
575.8067	0.0031
575.9995	0.0053
576.1923	0.0075
576.385	0.0055
576.5778	0.0088
576.7706	0.006
576.9633	0.0061
577.156	-0.0026
577.3487	0.0034
577.5414	0.0064
577.734	0.0037
577.9267	0.0047
578.1193	0.0088
578.3119	0.0026
578.5045	0.0057
578.6971	0.0077
578.8897	0.0062
579.0822	0.0099
579.2747	-0
579.4673	0.0046
579.6598	0.0067
579.8522	0.0032
580.0447	0.0071
580.2372	0.0109
580.4296	0.0105
580.622	0.0035
580.8144	0.0027
581.0068	0.0042
581.1992	0.0074
581.3915	0
581.5839	0.0078
581.7762	0.0023
581.9685	0.0051
582.1608	0.0057
582.353	0.0031
582.5453	0.0048
582.7375	0.0101
582.9298	0.0011
583.122	0.002
583.3142	0.0075
583.5063	0.0033
583.6985	-0.0013
583.8906	0.0007
584.0827	0.0044
584.2749	0.0009
584.4669	0.0059
584.659	0.0083
584.8511	0.0108
585.0431	0.0068
585.2352	0.0054
585.4272	0.0047
585.6192	0.0092
585.8111	0.0028
586.0031	0.0028
586.195	0.0034
586.387	0.0032
586.5789	0.0049
586.7708	0.0082
586.9627	0.0096
587.1545	0.0044
587.3464	0.009
587.5382	0.0096
587.73	0.0079
587.9218	0.0048
588.1136	0.0042
588.3053	0.0012
588.4971	0.0068
588.6888	0.0003
588.8805	0.0012
589.0722	0.0124
589.2639	0.0082
589.4556	0.0086
589.6472	0.0124
589.8389	0.0041
590.0305	0.0037
590.2221	0.0112
590.4137	0.0014
590.6052	0.0041
590.7968	0.0012
590.9883	0.0014
591.1798	0.0051
591.3713	0.0076
591.5628	0.0079
591.7543	0.0063
591.9458	0.0035
592.1372	0.0079
592.3286	0.0025
592.52	0.0029
592.7114	0.0018
592.9028	0.0067
593.0941	0.0031
593.2855	0.0009
593.4768	0.0078
593.6681	0.0058
593.8594	0.0085
594.0506	0.0078
594.2419	0.0051
594.4331	0.0047
594.6244	-0.0003
594.8156	0.0011
595.0067	-0.0011
595.1979	0.0034
595.3891	0.0052
595.5802	0.0086
595.7713	0.0072
595.9624	0.0091
596.1535	0.0023
596.3446	-0.001
596.5357	0.0048
596.7267	-0.0008
596.9177	0.0017
597.1087	-0.0024
597.2997	0.0087
597.4907	0
597.6817	0.0076
597.8726	0.0089
598.0635	-0.0005
598.2544	0.0054
598.4453	0.0051
598.6362	0.0017
598.827	0.0024
599.0179	0.0057
599.2087	0.0103
599.3995	0.0064
599.5903	0.0124
599.7811	0.0099
599.9718	0.0045
600.1626	0.004
600.3533	0.0038
600.544	0.0029
600.7347	0.0086
600.9254	0.0131
601.116	0.0071
601.3067	0.0058
601.4973	0.0128
601.6879	0.0031
601.8785	0.012
602.0691	0.0006
602.2596	0.0059
602.4502	0.0039
602.6407	0.0109
602.8312	0.0047
603.0217	0.0091
603.2122	0.0026
603.4027	0.0086
603.5931	-0.0006
603.7835	0.0037
603.9739	0.0061
604.1643	0.0097
604.3547	0.0089
604.5451	0.0149
604.7354	-0.0023
604.9257	0.0026
605.116	-0.0013
605.3063	0.0045
605.4966	0.0048
605.6869	0.0093
605.8771	0.0052
606.0673	0.0043
606.2575	0.0039
606.4477	0.0068
606.6379	-0.0003
606.8281	0.0025
607.0182	0.0024
607.2083	0.0071
607.3985	0.0053
607.5885	0.0012
607.7786	0.0078
607.9687	0.0017
608.1587	0.0084
608.3488	0.0103
608.5388	-0.003
608.7288	-0.0019
608.9187	0.0066
609.1087	0.0067
609.2986	0.0106
609.4886	0.0051
609.6785	-0.0002
609.8684	-0.004
610.0582	-0.0037
610.2481	-0.001
610.4379	0.0064
610.6278	0.002
610.8176	0.0072
611.0074	0.0079
611.1971	0.0075
611.3869	0.0071
611.5766	-0.0034
611.7664	0.0111
611.9561	0.0061
612.1458	0.0057
612.3354	0.0058
612.5251	0.0012
612.7147	0.0104
612.9044	0.0048
613.094	0.0038
613.2836	0.0003
613.4731	0.0033
613.6627	0.012
613.8522	0.0052
614.0417	0.0048
614.2313	-0.001
614.4207	0.0067
614.6102	0.008
614.7997	0.0113
614.9891	-0.0022
615.1785	0.0033
615.3679	0.0076
615.5573	0.005
615.7467	-0.0044
615.9361	0.0056
616.1254	0.0103
616.3147	0.0047
616.504	0.0012
616.6933	0.0079
616.8826	0.0013
617.0718	0.0128
617.2611	0.0039
617.4503	-0.0036
617.6395	0.0066
617.8287	0.0037
618.0179	0.009
618.207	0.0143
618.3961	0.0099
618.5853	0.0039
618.7744	0.0019
618.9634	0.0114
619.1525	-0.0061
619.3416	-0.0037
619.5306	0.006
619.7196	0.0113
619.9086	0.0114
620.0976	-0.0025
620.2866	0.0076
620.4755	0.0049
620.6645	0.0111
620.8534	0.0048
621.0423	-0.0028
621.2312	0.0068
621.42	-0.0026
621.6089	0.0057
621.7977	0.0072
621.9865	0.0041
622.1753	-0.0021
622.3641	-0.0006
622.5529	0.0111
622.7416	-0.0025
622.9303	0.0056
623.1191	0.0141
623.3078	0.0043
623.4964	0.0091
623.6851	0.0071
623.8737	-0.0005
624.0624	-0.0093
624.251	0.0068
624.4396	0.0028
624.6282	0.0127
624.8167	-0.0013
625.0053	0.0068
625.1938	0.0023
625.3823	0.0096
625.5708	-0.0004
625.7593	-0.012
625.9477	0.0175
626.1362	-0.001
626.3246	0.0036
626.513	0.0176
626.7014	0.0089
626.8898	0.013
627.0781	0.0087
627.2665	0.0078
627.4548	-0.0117
627.6431	0.0021
627.8314	0.0136
628.0197	0.0096
628.2079	-0.01
628.3962	-0.0006
628.5844	0.0191
628.7726	0.0016
628.9608	0.0074
629.1489	0.0136
629.3371	-0.0007
629.5252	0.0035
629.7134	-0.0144
629.9015	0.0031
630.0895	-0.0049
630.2776	0.0152
630.4657	-0.0005
630.6537	0.0084
630.8417	-0.0133
631.0297	0.002
631.2177	-0.0051
631.4057	0.0069
631.5936	0.003
631.7815	0.0253
631.9695	0.0175
632.1574	0.014
632.3452	0.0194
632.5331	0.0154
632.7209	0.0081
632.9088	0.0041
633.0966	0.021
633.2844	0.0073
633.4722	0.0133
633.6599	0.0192
633.8477	0.0116
634.0354	0.0175
634.2231	-0.0142
634.4108	0.0074
634.5985	0.0155
634.7861	-0.0041
634.9738	0.0043
635.1614	0.0012
635.349	0.0049
635.5366	0.0068
635.7242	0.004
635.9117	0.0112
636.0993	0.0199
636.2868	-0.0036
636.4743	-0.0042
636.6618	-0.0061
636.8492	0.0048
637.0367	-0.0056
637.2241	0.006
637.4115	0.0347
637.5989	0.0016
637.7863	0.0339
637.9737	0.0058
638.161	0.0128
638.3484	-0.0053
638.5357	-0.0037
638.723	0.0068
638.9103	-0.0066
639.0975	0.0022
639.2848	0.0063
639.472	0.008
639.6592	-0.0013
639.8464	-0.0045
640.0336	0.0153
640.2208	0.0024
640.4079	0.0081
640.595	-0.0097
640.7821	0.0344
640.9692	-0.002
641.1563	0.0071
641.3434	0.0074
641.5304	0.0109
641.7174	0.0127
641.9044	0.0031
642.0914	0.0333
642.2784	-0.021
642.4653	-0.0204
642.6523	0.0007
642.8392	0.0009
643.0261	-0.0034
643.213	0.0069
643.3999	0.014
643.5867	0.0085
643.7735	0.0185
643.9604	0.0109
644.1472	0.0113
644.3339	0.0012
644.5207	-0.0007
644.7075	-0.0021
644.8942	-0.0072
645.0809	-0.0011
645.2676	-0.0137
645.4543	0.0081
645.6409	0.0235
645.8276	0.0103
646.0142	0.0077
646.2008	-0.0038
646.3874	-0.0093
646.574	-0.0276
646.7605	0.0144
646.9471	0.0138
647.1336	-0.0095
647.3201	0.011
647.5066	0.0196
647.6931	0.0087
647.8795	0.0179
648.0659	-0.0011
648.2524	0.0068
648.4388	0.0031
648.6252	0.0089
648.8115	0.0058
648.9979	0.0165
649.1842	-0.002
649.3705	0.0142
649.5568	0.0029
649.7431	-0.003
649.9294	0.003
650.1156	-0.0065
650.3018	0.0111
650.488	0.0096
650.6742	0.0196
650.8604	0.0146
651.0466	-0.0036
651.2327	0.0038
651.4188	-0.0018
651.6049	0.0196
651.791	0.0004
651.9771	0.0117
652.1632	0.0168
652.3492	0.0042
652.5352	0.0215
652.7212	0.0172
652.9072	0.0011
653.0932	0.0135
653.2791	0.0115
653.465	0.0102
653.651	0.0058
653.8369	0.0067
654.0227	-0.009
654.2086	0.0183
654.3944	0.0044
654.5803	0.0037
654.7661	0.004
654.9519	-0.0021
655.1377	0
655.3234	0
655.5092	0
655.6949	0
655.8806	0
656.0663	0
656.2519	0
656.4376	0
656.6232	0
656.8088	0
656.9945	0
657.18	0
657.3656	0
657.5511	0
657.7367	0
657.9222	0
658.1077	0
658.2932	0
658.4786	0
658.6641	0
658.8495	0
659.0349	0
659.2203	0
659.4057	0
659.591	0.1337
659.7764	0.0284
659.9617	0.0049
660.147	-0.0007
660.3323	0.0099
660.5176	0.0003
660.7028	-0.0141
660.888	0.0144
661.0733	0.0132
661.2585	-0.0014
661.4436	0.0017
661.6288	0.0124
661.8139	0.0041
661.9991	-0.0306
662.1842	-0.0062
662.3693	0.011
662.5544	0.0108
662.7394	0.0218
662.9245	0.0031
663.1095	-0.0075
663.2945	-0.0122
663.4795	-0.0035
663.6644	-0.0013
663.8494	0.0263
664.0343	-0.0043
664.2193	-0.0065
664.4042	0.0078
664.589	0.0067
664.7739	-0.0111
664.9587	-0.0034
665.1436	-0.0077
665.3284	-0.002
665.5132	-0.0193
665.698	0.0224
665.8827	0.0351
666.0675	-0.0236
666.2522	0.0239
666.4369	-0.0137
666.6216	0.0004
666.8063	0.0114
666.9909	0.0075
667.1756	0.0128
667.3602	0.005
667.5448	0.022
667.7294	0.015
667.9139	-0.0122
668.0985	-0.002
668.283	-0.0134
668.4675	0.0238
668.652	0.0065
668.8365	0.0132
669.0209	-0.0006
669.2054	-0.0041
669.3898	-0.0025
669.5742	0.0087
669.7586	0.0043
669.943	0.0019
670.1273	0.0026
670.3117	-0.0009
670.496	0.003
670.6803	-0.0017
670.8646	-0.0114
671.0488	0.046
671.2331	-0.0032
671.4173	0.008
671.6015	0.0059
671.7857	0.0037
671.9699	0.0168
672.1541	-0.0097
672.3382	-0.0034
672.5223	0.0163
672.7064	0.0045
672.8905	0.0018
673.0746	0.0139
673.2587	0.0318
673.4427	0.0274
673.6267	0.0156
673.8107	0.0231
673.9947	0.014
674.1787	0.0028
674.3626	0.0035
674.5465	0.0198
674.7304	0.0119
674.9143	-0.0028
675.0982	0.0075
675.2821	-0.0172
675.4659	-0.003
675.6497	-0.0078
675.8335	0.0119
676.0173	0.0109
676.2011	0.0164
676.3849	0.0116
676.5686	0.0122
676.7523	-0.0065
676.936	-0.0113
677.1197	-0.0043
677.3034	0.0267
677.487	0.0157
677.6706	0.0097
677.8542	0.0046
678.0378	0.0142
678.2214	0.0151
678.405	0.0065
678.5885	0.025
678.772	0.0103
678.9555	-0.0029
679.139	0.008
679.3225	0.0055
679.5059	-0.0032
679.6894	-0.0104
679.8728	-0.0117
680.0562	-0.0002
680.2395	0.0041
680.4229	-0.0012
680.6062	0.0047
680.7896	0
680.9729	0.0159
681.1562	-0.0112
681.3394	0.0164
681.5227	0.0194
681.7059	0.0154
681.8891	0.0244
682.0723	-0.0119
682.2555	0.006
682.4387	0.0287
682.6218	0.0103
682.805	0.0149
682.9881	-0.0116
683.1712	0.0067
683.3542	0.0204
683.5373	-0.0094
683.7203	-0.0035
683.9034	-0.0041
684.0864	-0.0004
684.2694	0.0178
684.4523	0.0083
684.6353	-0.0013
684.8182	0.0024
685.0011	0.0076
685.184	0.0082
685.3669	0.0216
685.5498	0.0007
685.7326	0.0046
685.9154	0.0044
686.0982	0.0125
686.281	-0.0021
686.4638	0.0156
686.6465	-0.0022
686.8293	-0.0127
687.012	0.0192
687.1947	-0.0016
687.3774	0.0259
687.56	-0.0074
687.7427	0.0053
687.9253	-0.0151
688.1079	0.0069
688.2905	0.0007
688.4731	0.0193
688.6556	0.0094
688.8382	-0.0121
689.0207	0.0023
689.2032	0.027
689.3857	0.0006
689.5681	0.0067
689.7506	0.0246
689.933	-0.0106
690.1154	0.0058
690.2978	-0.0055
690.4802	0.0263
690.6626	0.0053
690.8449	0.0272
691.0272	0.0099
691.2095	-0.0019
691.3918	0.0064
691.5741	0.0257
691.7563	0.0088
691.9386	0.0175
692.1208	-0.0019
692.303	-0.0079
692.4852	-0.0016
692.6673	0
692.8495	-0.0075
693.0316	0.0164
693.2137	0.0159
693.3958	-0.0002
693.5778	0.0033
693.7599	-0.0003
693.9419	-0.0166
694.1239	-0.002
694.3059	0.0167
694.4879	0.0166
694.6699	0.0037
694.8518	0.0022
695.0337	0.0155
695.2157	0.0198
695.3975	0.0049
695.5794	-0.0203
695.7613	-0.0043
695.9431	-0.0218
696.1249	0.0196
696.3067	0.0053
696.4885	0.0132
696.6703	0.002
696.852	0.011
697.0337	0.0176
697.2154	0.0015
697.3971	0.0235
697.5788	0.0146
697.7605	-0.0224
697.9421	0.005
698.1237	0.0159
698.3053	-0.0176
698.4869	-0.0039
698.6685	0.01
698.85	0.0161
699.0315	-0.0177
699.213	0.0028
699.3945	-0.0037
699.576	0.0202
699.7575	0.0464
699.9389	-0.0227
700.1203	0.0151
700.3017	0.006
700.4831	0.0248
700.6645	0.0204
700.8458	0.0013
701.0271	0.0439
701.2084	0.0123
701.3897	0.0087
701.571	-0.032
701.7523	0.0046
701.9335	0.0025
702.1147	0.0264
702.2959	0.0031
702.4771	0.0198
702.6583	0.0267
702.8394	-0.0233
703.0205	0.0354
703.2016	0.0299
703.3827	-0.0173
703.5638	-0.0082
703.7449	0.0372
703.9259	0.0242
704.1069	0.0071
704.2879	-0.0007
704.4689	-0.006
704.6499	0.0001
704.8308	0.022
705.0117	0.0026
705.1927	0.0141
705.3735	-0.0018
705.5544	0.0087
705.7353	0.0068
705.9161	-0.0229
706.0969	0.0085
706.2777	-0.0127
706.4585	-0.003
706.6393	0.0265
706.82	0.0117
707.0007	-0.0043
707.1815	-0.0129
707.3621	0.0158
707.5428	0.0178
707.7235	0.001
707.9041	0.0086
708.0847	-0.0185
708.2653	0.0319
708.4459	0.0063
708.6265	-0.0089
708.807	-0.0048
708.9875	0.0093
709.168	0.0065
709.3485	0.0225
709.529	0.0093
709.7095	-0.0128
709.8899	0.0004
710.0703	0.005
710.2507	0.0029
710.4311	-0.0174
710.6115	0.0203
710.7918	0.0113
710.9721	0.0189
711.1524	-0.0062
711.3327	0.0153
711.513	-0.0175
711.6932	0.0095
711.8735	0.0009
712.0537	-0.0167
712.2339	-0.0047
712.4141	0.013
712.5942	0.0001
712.7744	0.0323
712.9545	0.0026
713.1346	0.038
713.3147	0.0161
713.4947	0.0031
713.6748	0.0146
713.8548	0.0067
714.0348	0.013
714.2148	0.0082
714.3948	0.0232
714.5748	0.0221
714.7547	0.0263
714.9346	0.0292
715.1145	0.0159
715.2944	-0.0293
715.4743	0.021
715.6541	0.0074
715.834	0.0278
716.0138	0.0102
716.1936	0.0001
716.3733	0.0154
716.5531	-0.0126
716.7328	-0.0101
716.9126	0.0227
717.0923	-0.0079
717.2719	0.0224
717.4516	0.0141
717.6312	-0.0058
717.8109	0.0127
717.9905	0.0168
718.1701	0.0192
718.3496	-0.0046
718.5292	-0.0014
718.7087	0.0254
718.8882	0.0448
719.0677	0.0214
719.2472	0.0234
719.4267	-0.001
719.6061	-0.0016
719.7856	0.022
719.965	-0.0004
720.1443	-0.0149
720.3237	0.0286
720.5031	0.005
720.6824	0.0054
720.8617	0.0061
721.041	0.0543
721.2203	-0.0212
721.3995	-0.0034
721.5788	0.0128
721.758	-0.019
721.9372	-0.0055
722.1164	-0.0233
722.2956	0.0148
722.4747	0.0058
722.6538	0.0121
722.8329	0.0396
723.012	0.0065
723.1911	0.003
723.3702	0.0037
723.5492	-0.0105
723.7282	-0.0189
723.9072	0.0291
724.0862	0.0141
724.2652	-0.0008
724.4441	-0.0314
724.623	0.0057
724.8019	0.0281
724.9808	0.0028
725.1597	0.0048
725.3385	0.0247
725.5174	0.0298
725.6962	-0.0064
725.875	0.001
726.0538	-0.002
726.2325	0.0183
726.4112	-0.0229
726.59	-0.0026
726.7687	0.0097
726.9474	0.0216
727.126	0.0147
727.3047	0.0076
727.4833	0.01
727.6619	-0.0049
727.8405	-0.0137
728.0191	0.0249
728.1976	0.0061
728.3762	0.0329
728.5547	0.0001
728.7332	0.0126
728.9116	0.0188
729.0901	0.0093
729.2686	-0.0009
729.447	0.0172
729.6254	-0.0015
729.8038	-0.0136
729.9821	-0.0053
730.1605	0.012
730.3388	-0.0067
730.5171	0.0018
730.6954	-0.0224
730.8737	-0.0059
731.0519	-0.0088
731.2302	0
731.4084	0.017
731.5866	0.0041
731.7648	-0.0333
731.9429	0.016
732.1211	-0.0113
732.2992	-0.0116
732.4773	0.0058
732.6554	-0.0086
732.8335	0.0227
733.0115	0.0024
733.1896	-0.0029
733.3676	0.0141
733.5456	0.0163
733.7235	0.0012
733.9015	0.015
734.0794	-0.0193
734.2574	-0.0128
734.4353	0.0152
734.6131	-0.0033
734.791	-0.0108
734.9689	-0.0017
735.1467	0.0053
735.3245	0.0123
735.5023	0.0091
735.68	0.0173
735.8578	0.0243
736.0355	0.0057
736.2132	0.0072
736.3909	0.0229
736.5686	-0.0054
736.7463	-0.0247
736.9239	0.0161
737.1015	0.0042
737.2791	0.0107
737.4567	0.0146
737.6343	-0.0035
737.8118	0.025
737.9894	0.0107
738.1669	-0.0069
738.3444	0.034
738.5218	-0.0335
738.6993	0.0018
738.8767	0.002
739.0541	0.0134
739.2315	0.0022
739.4089	0.0203
739.5863	-0.0003
739.7636	0.0195
739.9409	0.0134
740.1182	-0.0079
740.2955	0.0232
740.4728	-0.0281
740.65	-0.0119
740.8272	0.0248
741.0044	-0.0383
741.1816	0.0258
741.3588	-0.0352
741.5359	-0.0147
741.7131	0.0045
741.8902	-0.0134
742.0673	-0.0213
742.2444	0.0386
742.4214	0.0218
742.5985	-0.0219
742.7755	-0.0017
742.9525	-0.0256
743.1295	-0.0143
743.3064	0.0084
743.4834	0.0081
743.6603	0.0433
743.8372	-0.0549
744.0141	0.0436
744.191	-0.0178
744.3678	-0.0167
744.5446	0.0096
744.7215	0.0271
744.8982	0.0136
745.075	0.0484
745.2518	0.0257
745.4285	0.0229
745.6052	-0.0534
745.7819	0.0043
745.9586	-0.0057
746.1353	-0.0164
746.3119	0.0168
746.4885	0.0186
746.6651	0.0119
746.8417	-0.0045
747.0183	0.0309
747.1948	0.0022
747.3714	0.0034
747.5479	0.0337
747.7244	-0.0273
747.9008	-0.0185
748.0773	0.0447
748.2537	-0.001
748.4301	0.0477
748.6065	0.001
748.7829	-0.0235
748.9593	0.0012
749.1356	-0.0068
749.3119	0.0068
749.4882	0.009
749.6645	0.0129
749.8408	-0.005
750.017	0.0326
750.1933	-0.0307
750.3695	0.0305
750.5457	-0.0172
750.7218	0.0039
750.898	-0.0092
751.0741	0.0123
751.2502	0.0044
751.4263	-0.0283
751.6024	0.0278
751.7784	0.022
751.9545	0.0235
752.1305	0.01
752.3065	0.0044
752.4825	-0.0063
752.6584	0.0184
752.8344	-0.0007
753.0103	-0.0014
753.1862	0.0029
753.3621	-0.0226
753.5379	-0.0092
753.7138	0.0076
753.8896	0.0089
754.0654	-0.0036
754.2412	0.0039
754.417	0.0147
754.5927	0.0083
754.7685	0.0039
754.9442	0.0328
755.1199	0.0106
755.2956	0.0033
755.4712	0.0124
755.6469	0.0126
755.8225	-0.0019
755.9981	0.0018
756.1736	0
756.3492	0.0149
756.5248	0.0124
756.7003	-0.0006
756.8758	0.0126
757.0513	0.0063
757.2267	-0.0025
757.4022	0.0004
757.5776	0.0006
757.753	0.0175
757.9284	-0.0105
758.1038	-0.0088
758.2791	0.0147
758.4545	-0.0068
758.6298	0.0041
758.8051	0.0033
758.9803	0.0005
759.1556	-0.0083
759.3308	0.0016
759.506	-0.0046
759.6812	-0.0017
759.8564	0.0115
760.0316	-0.0055
760.2067	0.0195
760.3819	-0.0006
760.557	-0.001
760.732	0.0073
760.9071	0.0155
761.0821	-0.0191
761.2572	0.0164
761.4322	0.0225
761.6072	0.0052
761.7821	-0.0225
761.9571	0.008
762.132	0.0148
762.3069	0.0227
762.4818	0.0203
762.6567	0.0026
762.8316	0.0141
763.0064	0.0102
763.1812	0.0172
763.356	-0.01
763.5308	0.0138
763.7055	0.0029
763.8803	-0.0027
764.055	-0.0017
764.2297	-0.0086
764.4044	-0.0078
764.579	-0.0084
764.7537	-0.0097
764.9283	0.0137
765.1029	0.0124
765.2775	0.0184
765.4521	0.0037
765.6266	0.0026
765.8011	0.009
765.9756	0.0211
766.1501	-0.0083
766.3246	0.0055
766.4991	0.0202
766.6735	0.0241
766.8479	0.0219
767.0223	0.0208
767.1967	-0.0005
767.371	-0.0035
767.5454	0.0286
767.7197	0.0226
767.894	0.0033
768.0683	0.0207
768.2425	0.0143
768.4168	-0.0046
768.591	0.0168
768.7652	-0.0048
768.9394	-0.006
769.1135	0.0005
769.2877	-0.0139
769.4618	0.033
769.6359	0.0064
769.81	0.0058
769.984	0.0038
770.1581	0.0091
770.3321	0.0112
770.5061	-0.0021
770.6801	0.0129
770.8541	0.0435
771.028	0.0397
771.202	0.0198
771.3759	0.0313
771.5498	0.0224
771.7236	0.0005
771.8975	0.0249
772.0713	-0.0139
772.2451	-0.0115
772.4189	-0.0052
772.5927	-0.0166
772.7665	-0.0122
772.9402	-0.0113
773.1139	0.004
773.2876	-0.0005
773.4613	0.015
773.635	0.0479
773.8086	0.022
773.9822	0.0203
774.1558	0.0117
774.3294	0.0097
774.503	0.0085
774.6765	0.0297
774.8501	0.0189
775.0236	0.0239
775.1971	0.0253
775.3705	-0.0248
775.544	-0.0519
775.7174	0.0092
775.8908	0.0028
776.0642	0.0126
776.2376	-0.0048
776.4109	-0.0016
776.5843	-0.0025
776.7576	-0.0007
776.9309	0.0206
777.1041	-0.0051
777.2774	0.0018
777.4506	0.0349
777.6238	-0.0196
777.797	0.0166
777.9702	0.0134
778.1434	0.0243
778.3165	-0.021
778.4896	-0.0501
778.6627	-0.0139
778.8358	-0.013
779.0089	-0.0117
779.1819	0.0176
779.3549	0.0112
779.5279	-0.0095
779.7009	0.0156
779.8739	0.0611
780.0468	-0.0199
780.2197	0.0457
780.3926	-0.0278
780.5655	0.0159
780.7384	0.0212
780.9112	0.0277
781.0841	0.0071
781.2569	0.0087
781.4297	-0.0013
781.6024	0.0201
781.7752	0.0801
781.9479	0.0308
782.1206	-0.0124
782.2933	-0.0033
782.466	0.027
782.6386	-0.0078
782.8113	-0.0011
782.9839	-0.0397
783.1565	0.0392
783.329	0.0018
783.5016	-0.0145
783.6741	-0.0023
783.8466	0.0547
784.0191	0.0262
784.1916	-0.0069
784.3641	-0.0395
784.5365	0.0148
784.7089	-0.0598
784.8813	0.096
785.0537	0.0119
785.2261	0.0001
785.3984	-0.0201
785.5707	-0.0072
785.743	0.0318
785.9153	-0.0414
786.0876	-0.0097
786.2598	-0.0174
786.432	0.0214
786.6042	0.0421
786.7764	-0.0395
786.9486	-0.0108
787.1207	0.0032
787.2928	0.0302
787.4649	-0.0114
787.637	0.0376
787.8091	0.0223
787.9811	0.0423
788.1532	0.0334
788.3252	0.0036
788.4972	0.0204
788.6691	0.0132
788.8411	0.0173
789.013	0.0174
789.1849	-0.0125
789.3568	0.0105
789.5287	0.0121
789.7005	-0.0211
789.8723	-0.0155
790.0442	-0.0155
790.2159	-0.021
790.3877	0.0192
790.5595	0.015
790.7312	-0.0363
790.9029	-0.0169
791.0746	0.0013
791.2463	-0.0225
791.4179	0.0541
791.5896	0.035
791.7612	0.0613
791.9328	0.1055
792.1044	0.0321
792.2759	0.0014
792.4474	0.0192
792.619	0.0002
792.7905	0.0625
792.9619	0.0192
793.1334	0.0862
793.3048	0.0718
793.4762	0.0217
793.6476	-0.042
793.819	-0.0169
793.9904	0.0074
794.1617	0.0039
794.333	-0.0158
794.5043	0.0111
794.6756	0.0238
794.8469	0.0131
795.0181	0.0077
795.1893	0.0045
795.3605	0.0417
795.5317	-0.0132
795.7029	0.0129
795.874	-0.0365
796.0452	0.0167
796.2163	0.052
796.3873	0.0127
796.5584	0.0133
796.7294	0.0248
796.9005	0.0752
797.0715	-0.0331
797.2425	0.0703
797.4134	0.0588
797.5844	0.0404
797.7553	-0.0442
797.9262	0.0491
798.0971	0.0303
798.2679	-0.0034
798.4388	0.0528
798.6096	0.0417
798.7804	0.0318
798.9512	0.0014
799.122	-0.0074
799.2927	0.0716
799.4635	-0.0683
799.6342	-0.0677
799.8049	0.0244
799.9755	-0.085
800.1462	0.0057
800.3168	0.019
800.4874	-0.0665
800.658	0.0039
800.8286	-0.0059
800.9991	-0.0315
801.1696	-0.0414
801.3402	-0.0399
801.5106	-0.0905
801.6811	-0.0452
801.8516	0.0458
802.022	-0.0562
802.1924	0.013
802.3628	0.0183
802.5332	0.1366
802.7035	0.0632
802.8739	0.1838
803.0442	-0.018
803.2145	0.1584
803.3847	-0.0059
803.555	0.0957
803.7252	-0.0306
803.8954	-0.0523
804.0656	-0.0442
804.2358	0.0566
804.4059	0.0744
804.5761	0.0157
804.7462	0.0038
804.9163	0.1025
805.0864	-0.0049
805.2564	-0.1051
805.4264	-0.033
805.5965	-0.0217
805.7665	-0.0028
805.9364	-0.0105
806.1064	-0.0068
806.2763	0.0039
806.4462	0.0239
806.6161	0.0329
806.786	0.0144
806.9559	0.008
807.1257	-0.0283
807.2955	-0.0282
807.4653	0.0135
807.6351	0.0306
807.8048	0.0043
807.9746	0.0141
808.1443	0.0224
808.314	0.0781
808.4837	0.0325
808.6533	0.0753
808.8229	0.0072
808.9926	0.0016
809.1622	0.0061
809.3317	-0.0965
809.5013	-0.0961
809.6708	-0.003
809.8403	0.0003
810.0098	0.0075
810.1793	0.0218
810.3488	0.016
810.5182	0.0621
810.6876	-0.013
810.857	-0.0105
811.0264	-0.0861
811.1958	0.1009
811.3651	-0.0711
811.5344	0.0107
811.7037	0.0243
811.873	0.077
812.0422	-0.044
812.2115	0.0146
812.3807	-0.1083
812.5499	-0.0198
812.7191	-0.1636
812.8882	0.0646
813.0574	-0.0149
813.2265	-0.005
813.3956	-0.0259
813.5646	-0.0529
813.7337	0.0357
813.9027	-0.0351
814.0718	-0.0026
814.2407	0.1481
814.4097	0.0362
814.5787	0.049
814.7476	-0.0334
814.9165	0.0586
815.0854	-0.0109
815.2543	-0.0112
815.4232	0.0966
815.592	-0.0169
815.7608	-0.2245
815.9296	-0.0762
816.0984	-0.0939
816.2671	-0.1908
816.4359	0.0319
816.6046	-0.0145
816.7733	-0.1291
816.942	0.0575
817.1106	0.0807
817.2793	-0.1391
817.4479	0.0172
817.6165	0.0938
817.785	0.0767
817.9536	-0.1088
818.1221	0.0066
818.2906	0.0319
818.4591	0.0375
818.6276	-0.0737
818.7961	-0.0212
818.9645	-0.0315
819.1329	0.059
819.3013	-0.0779
819.4697	-0.1762
819.638	-0.0462
819.8064	-0.0519
819.9747	0.0454
820.143	0.129
820.3113	0.0574
820.4795	0.156
820.6477	0.1343
820.816	0.2149
820.9842	-0.0444
821.1523	0.0902
821.3205	-0.0365
821.4886	-0.0275
821.6567	-0.0138
821.8248	0.1837
821.9929	-0.1375
822.1609	-0.041
822.329	0.3438
822.497	0.0814
822.665	-0.0625
822.833	0.0483
823.0009	-0.0766
823.1688	-0.0035
823.3367	-0.1925
823.5046	0.0649
823.6725	-0.069
823.8404	-0.0491
824.0082	-0.0133
824.176	-0.0422
824.3438	0.0729
824.5116	-0.1018
824.6793	0.0494
824.847	-0.0978
825.0147	0.1572
825.1824	0.0398
825.3501	0.0836
825.5177	-0.0165
825.6854	0.0321
825.853	-0.0165
826.0206	-0.1293
826.1881	0.167
826.3557	0.0077
826.5232	0.2164
826.6907	-0.0443
826.8582	-0.0984
827.0257	0.0207
827.1931	0.1278
827.3605	-0.089
827.528	-0.1209
827.6953	-0.2181
827.8627	-0.1013
828.03	-0.0216
828.1974	0.0503
828.3647	-0.0694
828.532	0.0373
828.6992	0.3089
828.8665	-0.1992
829.0337	-0.0355
829.2009	-0.0943
829.3681	0.0302
829.5352	-0.2579
829.7024	0.2316
829.8695	-0.1239
830.0366	-0.014
830.2037	0.0641
830.3707	0.1128
830.5378	-0.0704
830.7048	0.0296
830.8718	0.0865
831.0388	-0.03
831.2057	-0.4206
831.3727	-0.3029
831.5396	0.0984
831.7065	-0.8792
831.8734	0.1486
832.0402	0.1147
832.2071	0.0063
832.3739	-0.1361
832.5407	-0
832.7075	-0.4343
832.8742	0.3319
833.041	0.0158
833.2077	0.6788
833.3744	0.0346
833.541	-0.0476
833.7077	-0.0941
833.8743	0.193
834.0409	0.1845
834.2075	0.1877
834.3741	-0.208
834.5407	0.0559
834.7072	0.2405
834.8737	0.3728
835.0402	0.2251
835.2067	-0.1442
835.3731	-0.0734
835.5395	0.0157
835.706	-0.327
835.8723	0.2096
836.0387	0.0268
836.2051	0.3983
836.3714	-0.1127
836.5377	-0.1287
836.704	-0.0704
836.8703	-0.062
837.0365	-0.6033
837.2027	0.1095
837.3689	0.0492
837.5351	0.0374
837.7013	0.1286
837.8674	-0.5161
838.0335	0.0277
838.1997	-0.386
838.3657	0.5798
838.5318	-0.6592
838.6978	-0
838.8639	-0.1844
839.0299	0.0757
839.1958	0.3091
839.3618	-0
839.5277	-0.0745
839.6937	-0.057
839.8596	-0.1582
840.0254	-0.1473
840.1913	-0.0474
840.3571	-0.3958
840.523	-0
840.6888	0.182
840.8545	-0.4934
841.0203	-0.0398
841.186	0.1011
841.3517	-0.0908
841.5174	0.1579
841.6831	0.0568
841.8488	-0.1592
842.0144	0.2796
842.18	0.2999
842.3456	-0.411
842.5112	-0
842.6767	-0.0464
842.8422	-0.1197
843.0077	0.0011
843.1732	-0.3241
843.3387	-0.0483
843.5042	-0
843.6696	-0
843.835	0.1693
844.0004	-0.173
844.1657	-0.8944
844.3311	-0.2905
844.4964	-0.3316
844.6617	-0
844.827	0.0807
844.9923	0.0523
845.1575	0.3989
845.3227	-0.2616
845.4879	0.0807
845.6531	-0.0816
845.8183	-0.1247
845.9834	0.3971
846.1485	0.1338
846.3136	-0.2203
846.4787	-0
846.6438	0.272
846.8088	0.7691
846.9738	-0
847.1388	0.3054
847.3038	0.2282
847.4687	0.4016
847.6337	-0.7344
847.7986	-0.1717
847.9635	0.1548
848.1284	0.3359
848.2932	0.4797
848.458	-0
848.6228	0.2981
848.7876	-0
848.9524	-0.2365
849.1172	-1.9855
849.2819	-0
849.4466	0.0809
849.6113	0.3072
849.7759	-0.076
849.9406	-0.156
850.1052	-0.9593
850.2698	1.475
850.4344	-0.5737
850.599	-0.0245
850.7635	-0.1735
850.928	0.128
851.0925	0.0913
851.257	-0.1629
851.4215	-0.1421
851.5859	-0.2426
851.7503	-0
851.9147	-0.7415
852.0791	-0.2172
852.2434	0.0495
852.4078	-0
852.5721	0.4122
852.7364	-0.0383
852.9007	-0.0786
853.0649	-0
853.2291	0.3801
853.3934	-0
853.5575	-0.1607
853.7217	0.1787
853.8859	-0.4725
854.05	-0.6762
854.2141	0.2384
854.3782	-0.366
854.5423	-0
854.7063	-0.1605
854.8703	0.0167
855.0343	-0.1117
855.1983	0.0492
855.3623	0.2294
855.5262	1.4494
855.6901	0.6138
855.854	0.0191
856.0179	-0.2705
856.1818	0.724
856.3456	0.0082
856.5094	-0.1603
856.6732	-0
856.837	-1.205
857.0008	-0.5349
857.1645	-0.4438
857.3282	-0
857.4919	0.0511
857.6556	-0
857.8192	0.2469
857.9828	1.0528
858.1465	0.2852
858.31	-0
858.4736	0.0841
858.6372	0.0811
858.8007	-0.1371
858.9642	0.2309
859.1277	-0
859.2911	-0.5012
859.4546	-0
859.618	-0
859.7814	-0.2631
859.9448	-0.3171
860.1081	0.2478
860.2715	-1.6036
860.4348	0.029
860.5981	0.3532
860.7614	-0.4333
860.9246	-0.0911
861.0879	-0
861.2511	0.8792
861.4143	-0.264
861.5774	-0.4508
861.7406	-0.3134
861.9037	-0.1999
862.0668	-0.7083
862.2299	0.2151
862.393	-0
862.556	-0.2014
862.7191	-0.2759
862.8821	0.087
863.0451	-0.1445
863.208	-0
863.371	-0
863.5339	0.5373
863.6968	0.2578
863.8597	-0
864.0225	-0.1696
864.1854	-0.1128
864.3482	-0.6454
864.511	0.2442
864.6737	-0.2065
864.8365	0.3258
864.9992	-0
865.1619	-0.535
865.3246	-1.6253
865.4873	-0
865.65	1.4462
865.8126	-0.2227
865.9752	0.0807
866.1378	0.0359
866.3004	-0.1396
866.4629	-1.7449
866.6254	0.5302
866.7879	0.256
866.9504	0.8182
867.1129	0.0362
867.2753	0.5798
867.4377	0.1254
867.6001	-0.2945
867.7625	-0.0875
867.9249	-0
868.0872	-0.2634
868.2495	-0
868.4118	-0
868.5741	-0
868.7363	-0
868.8986	-0.4475
869.0608	-0
869.223	-0.305
869.3851	-0.1544
869.5473	-0.1248
869.7094	0.3742
869.8715	-0
870.0336	-0.1383
870.1957	-0
870.3577	-0
870.5197	-0.2674
870.6817	-1.023
870.8437	-0.3451
871.0057	0.3711
871.1676	0.0816
871.3295	-0
871.4914	-0
871.6533	-0.1642
871.8151	-0
871.977	-0.195
872.1388	-0.3253
872.3006	-0.6741
872.4623	-0
872.6241	-0
872.7858	0.3266
872.9475	-0
873.1092	-0
873.2709	0.2678
873.4325	-0.8792
873.5941	-0
873.7557	-0
873.9173	0.4533
874.0789	0.1947
874.2404	0.6806
874.4019	0.2991
874.5634	-0
874.7249	0.1829
874.8863	0.3611
875.0478	-0.2892
875.2092	0.6112
875.3706	0.4335
875.5319	0.5114
875.6933	0.3915
875.8546	-0
876.0159	0.3147
876.1772	-0
876.3385	0.5335
876.4997	0.2585
876.6609	0.5653
876.8221	-0
876.9833	-0
877.1445	0.6057
877.3056	-1.0414
877.4667	-1.0956
877.6278	-0
877.7889	-0.1636
877.9499	0.272
878.111	-0.5211
878.272	0.5476
878.433	0.0031
878.5939	-0.2944
878.7549	-0.3557
878.9158	-0
879.0767	-0
879.2376	-0.4494
879.3984	-0
879.5593	0.3676
879.7201	-1.1043
879.8809	-0
880.0417	-0.1507
880.2024	-0.1763
880.3632	-0.2014
880.5239	0.2113
880.6846	-0.7689
880.8452	0.1514
881.0059	-0
881.1665	0.1693
881.3271	-0
881.4877	-0
881.6483	-0
881.8088	-0
881.9693	-0
882.1298	-0
882.2903	-0
