Data from D4ACN5uM440nmA_Absorbance_13-50-25-282.txt Node
Date: Fri Feb 21 13:50:25 GMT 2025
User: LASERRRRR
Spectrometer: FLMT03099
Trigger mode: 0
Integration Time (sec): 1.500000E-2
Scans to average: 1
Electric dark correction enabled: true
Nonlinearity correction enabled: false
Boxcar width: 0
XAxis mode: Wavelengths
Number of Pixels in Spectrum: 3648
>>>>>Begin Spectral Data<<<<<
179.3399	-0.7373
179.5586	-0.7373
179.7771	-0.7373
179.9957	0.4279
180.2143	-1.1592
180.4329	1.2384
180.6514	-0
180.8699	1.2025
181.0885	-0
181.307	0.116
181.5255	0.0281
181.744	-0
181.9625	0.524
182.181	-0.1884
182.3994	0.8734
182.6179	0.7743
182.8363	0.1753
183.0547	-0.0456
183.2732	0.0923
183.4916	0.6974
183.71	0.2565
183.9284	0.0172
184.1467	0.1759
184.3651	0.0804
184.5835	0.2044
184.8018	0.2091
185.0201	0.1438
185.2385	0.1654
185.4568	-0.0278
185.6751	0.1481
185.8934	0.2791
186.1117	0.001
186.3299	0.4964
186.5482	0.1991
186.7664	-0.0076
186.9847	-0.0558
187.2029	0.2228
187.4211	0.0548
187.6393	0.0234
187.8575	0.3907
188.0757	0.2002
188.2939	-0.1565
188.512	0.4781
188.7302	0.1658
188.9483	0.5252
189.1665	0.5548
189.3846	0.2784
189.6027	0.034
189.8208	0.2321
190.0389	0.1718
190.257	0.007
190.475	0.1683
190.6931	0.1936
190.9111	0.1738
191.1292	0.0301
191.3472	0.0664
191.5652	0.506
191.7832	0.2143
192.0012	0.1295
192.2192	0.1154
192.4371	0.1161
192.6551	0.1708
192.873	0.1959
193.091	0.1583
193.3089	0.2023
193.5268	0.2943
193.7447	0.2061
193.9626	0.2271
194.1805	0.2145
194.3984	0.2958
194.6162	0.2602
194.8341	0.4555
195.0519	0.2827
195.2697	0.2658
195.4875	0.4021
195.7054	0.2847
195.9231	0.2088
196.1409	0.2743
196.3587	0.328
196.5765	0.3322
196.7942	0.345
197.012	0.3354
197.2297	0.3469
197.4474	0.2729
197.6651	0.3173
197.8828	0.3629
198.1005	0.4396
198.3182	0.4214
198.5358	0.3987
198.7535	0.3992
198.9711	0.4026
199.1888	0.3774
199.4064	0.4528
199.624	0.3578
199.8416	0.3585
200.0592	0.4021
200.2767	0.3963
200.4943	0.4387
200.7119	0.4028
200.9294	0.4088
201.1469	0.4464
201.3645	0.4733
201.582	0.3877
201.7995	0.424
202.017	0.3821
202.2344	0.4264
202.4519	0.3956
202.6694	0.4135
202.8868	0.381
203.1042	0.4018
203.3217	0.3959
203.5391	0.4283
203.7565	0.3646
203.9739	0.3763
204.1913	0.3631
204.4086	0.3362
204.626	0.3529
204.8433	0.3875
205.0607	0.3563
205.278	0.3469
205.4953	0.3301
205.7126	0.3379
205.9299	0.3153
206.1472	0.3139
206.3644	0.3532
206.5817	0.3246
206.7989	0.3445
207.0162	0.3053
207.2334	0.3377
207.4506	0.2989
207.6678	0.3211
207.885	0.2928
208.1022	0.3223
208.3194	0.2653
208.5365	0.3406
208.7537	0.287
208.9708	0.3
209.1879	0.2938
209.405	0.3002
209.6222	0.2847
209.8392	0.2911
210.0563	0.2738
210.2734	0.2718
210.4905	0.2719
210.7075	0.2619
210.9245	0.2708
211.1416	0.2787
211.3586	0.2535
211.5756	0.2408
211.7926	0.2629
212.0096	0.2555
212.2265	0.2603
212.4435	0.2507
212.6604	0.2678
212.8774	0.2525
213.0943	0.2653
213.3112	0.2585
213.5281	0.2513
213.745	0.2433
213.9619	0.2447
214.1788	0.2687
214.3956	0.2612
214.6125	0.256
214.8293	0.2581
215.0461	0.2417
215.2629	0.2509
215.4798	0.2363
215.6965	0.2492
215.9133	0.2511
216.1301	0.2293
216.3469	0.243
216.5636	0.246
216.7803	0.2439
216.9971	0.2557
217.2138	0.2571
217.4305	0.2541
217.6472	0.2481
217.8639	0.2543
218.0805	0.271
218.2972	0.2576
218.5138	0.2779
218.7305	0.2648
218.9471	0.2348
219.1637	0.2667
219.3803	0.2672
219.5969	0.2475
219.8135	0.2642
220.0301	0.2481
220.2466	0.2529
220.4632	0.2624
220.6797	0.2596
220.8962	0.247
221.1127	0.2744
221.3292	0.2608
221.5457	0.2711
221.7622	0.2566
221.9787	0.2809
222.1951	0.2763
222.4116	0.2829
222.628	0.281
222.8444	0.2681
223.0608	0.2798
223.2772	0.2699
223.4936	0.2801
223.71	0.2911
223.9264	0.3007
224.1427	0.2878
224.3591	0.2855
224.5754	0.2933
224.7917	0.2858
225.008	0.298
225.2243	0.3008
225.4406	0.2865
225.6569	0.314
225.8732	0.3075
226.0894	0.3091
226.3057	0.3141
226.5219	0.3013
226.7381	0.3234
226.9543	0.312
227.1705	0.3167
227.3867	0.3236
227.6029	0.3161
227.8191	0.3381
228.0352	0.3402
228.2513	0.3491
228.4675	0.3381
228.6836	0.3432
228.8997	0.3517
229.1158	0.3451
229.3319	0.3634
229.548	0.3614
229.764	0.3607
229.9801	0.359
230.1961	0.3701
230.4121	0.3682
230.6282	0.3795
230.8442	0.3921
231.0602	0.3813
231.2761	0.3851
231.4921	0.3864
231.7081	0.387
231.924	0.3966
232.14	0.3923
232.3559	0.3956
232.5718	0.4007
232.7877	0.4061
233.0036	0.4044
233.2195	0.4175
233.4353	0.4118
233.6512	0.4189
233.867	0.4274
234.0829	0.4214
234.2987	0.4283
234.5145	0.4345
234.7303	0.4313
234.9461	0.4288
235.1619	0.4397
235.3776	0.4286
235.5934	0.4415
235.8091	0.4538
236.0249	0.4498
236.2406	0.443
236.4563	0.4535
236.672	0.4394
236.8877	0.4619
237.1034	0.4554
237.319	0.4474
237.5347	0.4601
237.7503	0.4401
237.966	0.4577
238.1816	0.4512
238.3972	0.4565
238.6128	0.4662
238.8284	0.4617
239.0439	0.463
239.2595	0.4652
239.475	0.4561
239.6906	0.4529
239.9061	0.4497
240.1216	0.4633
240.3371	0.4677
240.5526	0.4666
240.7681	0.4705
240.9836	0.4646
241.199	0.4431
241.4145	0.4446
241.6299	0.4481
241.8453	0.437
242.0607	0.4441
242.2761	0.4355
242.4915	0.4281
242.7069	0.4107
242.9223	0.4157
243.1376	0.4096
243.353	0.4017
243.5683	0.3979
243.7836	0.3883
243.9989	0.3725
244.2142	0.3755
244.4295	0.3698
244.6448	0.361
244.86	0.3477
245.0753	0.3459
245.2905	0.3406
245.5057	0.3355
245.721	0.3361
245.9362	0.3281
246.1514	0.3204
246.3665	0.3136
246.5817	0.2956
246.7969	0.3052
247.012	0.2945
247.2271	0.2918
247.4423	0.2876
247.6574	0.2884
247.8725	0.2712
248.0876	0.266
248.3026	0.2662
248.5177	0.2498
248.7328	0.2477
248.9478	0.2531
249.1628	0.2474
249.3779	0.2396
249.5929	0.2354
249.8079	0.235
250.0228	0.2342
250.2378	0.2284
250.4528	0.2332
250.6677	0.2202
250.8827	0.2121
251.0976	0.2128
251.3125	0.2155
251.5274	0.2111
251.7423	0.2058
251.9572	0.2117
252.172	0.211
252.3869	0.208
252.6017	0.2072
252.8166	0.1975
253.0314	0.1969
253.2462	0.1961
253.461	0.1983
253.6758	0.1942
253.8906	0.1912
254.1053	0.1959
254.3201	0.1895
254.5348	0.1829
254.7496	0.1842
254.9643	0.1893
255.179	0.1854
255.3937	0.1938
255.6083	0.1931
255.823	0.1852
256.0377	0.1792
256.2523	0.1839
256.467	0.1851
256.6816	0.1771
256.8962	0.1857
257.1108	0.1841
257.3254	0.178
257.54	0.1831
257.7545	0.1798
257.9691	0.1732
258.1836	0.1731
258.3981	0.185
258.6127	0.1684
258.8272	0.1807
259.0417	0.1756
259.2561	0.1784
259.4706	0.177
259.6851	0.1733
259.8995	0.1775
260.114	0.1808
260.3284	0.174
260.5428	0.1752
260.7572	0.1752
260.9716	0.1847
261.186	0.173
261.4003	0.1744
261.6147	0.1716
261.829	0.1792
262.0433	0.1768
262.2577	0.1781
262.472	0.1785
262.6863	0.1786
262.9005	0.1724
263.1148	0.1785
263.3291	0.1801
263.5433	0.1828
263.7576	0.1822
263.9718	0.1796
264.186	0.1783
264.4002	0.1785
264.6144	0.1885
264.8286	0.1827
265.0427	0.1874
265.2569	0.1845
265.471	0.1787
265.6851	0.1804
265.8993	0.1763
266.1134	0.1795
266.3275	0.1803
266.5415	0.1811
266.7556	0.1847
266.9697	0.1824
267.1837	0.1786
267.3978	0.1812
267.6118	0.1798
267.8258	0.1864
268.0398	0.1846
268.2538	0.183
268.4677	0.176
268.6817	0.179
268.8957	0.1734
269.1096	0.1638
269.3235	0.1811
269.5374	0.1785
269.7514	0.1785
269.9652	0.1771
270.1791	0.1766
270.393	0.1708
270.6068	0.1784
270.8207	0.1759
271.0345	0.1763
271.2483	0.1706
271.4622	0.1708
271.676	0.1784
271.8897	0.1693
272.1035	0.1756
272.3173	0.1706
272.531	0.171
272.7448	0.1728
272.9585	0.1696
273.1722	0.1671
273.3859	0.1725
273.5996	0.1769
273.8133	0.1771
274.0269	0.1749
274.2406	0.1732
274.4542	0.171
274.6679	0.1785
274.8815	0.1799
275.0951	0.1823
275.3087	0.179
275.5223	0.1763
275.7358	0.1819
275.9494	0.1735
276.1629	0.1776
276.3765	0.1757
276.59	0.1777
276.8035	0.1748
277.017	0.1826
277.2305	0.1824
277.444	0.1857
277.6574	0.182
277.8709	0.1831
278.0843	0.1821
278.2978	0.1783
278.5112	0.1858
278.7246	0.1786
278.938	0.1784
279.1513	0.1821
279.3647	0.1841
279.5781	0.1825
279.7914	0.1831
280.0047	0.1844
280.2181	0.1815
280.4314	0.1819
280.6447	0.1925
280.8579	0.1745
281.0712	0.1849
281.2845	0.1807
281.4977	0.1811
281.711	0.176
281.9242	0.182
282.1374	0.1795
282.3506	0.1817
282.5638	0.1792
282.7769	0.1751
282.9901	0.1832
283.2033	0.1822
283.4164	0.1871
283.6295	0.1828
283.8426	0.1809
284.0557	0.1884
284.2688	0.1867
284.4819	0.1806
284.695	0.1874
284.908	0.1892
285.1211	0.1861
285.3341	0.1825
285.5471	0.1839
285.7601	0.1869
285.9731	0.1842
286.1861	0.1929
286.3991	0.186
286.612	0.1857
286.825	0.1933
287.0379	0.1821
287.2508	0.1875
287.4637	0.1893
287.6766	0.1891
287.8895	0.1828
288.1024	0.1848
288.3152	0.1886
288.5281	0.1858
288.7409	0.194
288.9538	0.1896
289.1666	0.1832
289.3794	0.1898
289.5922	0.1874
289.8049	0.1908
290.0177	0.188
290.2304	0.1873
290.4432	0.19
290.6559	0.1917
290.8686	0.197
291.0813	0.1909
291.294	0.1924
291.5067	0.189
291.7194	0.1906
291.932	0.1856
292.1447	0.1872
292.3573	0.191
292.5699	0.1857
292.7825	0.1891
292.9951	0.1897
293.2077	0.1911
293.4203	0.1915
293.6328	0.1882
293.8454	0.1913
294.0579	0.1879
294.2704	0.1939
294.4829	0.1876
294.6954	0.194
294.9079	0.1901
295.1204	0.1847
295.3328	0.1953
295.5453	0.187
295.7577	0.1892
295.9701	0.1912
296.1825	0.1928
296.3949	0.1817
296.6073	0.189
296.8197	0.1905
297.0321	0.1956
297.2444	0.1898
297.4567	0.1945
297.6691	0.1892
297.8814	0.1905
298.0937	0.1871
298.306	0.1874
298.5182	0.1964
298.7305	0.1887
298.9428	0.1924
299.155	0.184
299.3672	0.1905
299.5794	0.1924
299.7916	0.1899
300.0038	0.1945
300.216	0.1952
300.4282	0.1843
300.6403	0.1958
300.8525	0.1907
301.0646	0.194
301.2767	0.1944
301.4888	0.1902
301.7009	0.1969
301.913	0.1941
302.125	0.189
302.3371	0.1879
302.5491	0.1898
302.7612	0.1985
302.9732	0.1897
303.1852	0.1964
303.3972	0.1914
303.6092	0.1914
303.8211	0.1873
304.0331	0.1909
304.245	0.1909
304.457	0.1912
304.6689	0.1838
304.8808	0.1819
305.0927	0.1929
305.3046	0.1852
305.5164	0.1871
305.7283	0.1869
305.9401	0.1775
306.152	0.1794
306.3638	0.1815
306.5756	0.1794
306.7874	0.1739
306.9992	0.1732
307.2109	0.1718
307.4227	0.1706
307.6344	0.1751
307.8462	0.1682
308.0579	0.1684
308.2696	0.1621
308.4813	0.1608
308.693	0.1673
308.9046	0.1651
309.1163	0.1599
309.328	0.1567
309.5396	0.1517
309.7512	0.1531
309.9628	0.1537
310.1744	0.1539
310.386	0.1509
310.5976	0.1482
310.8091	0.1513
311.0207	0.1476
311.2322	0.1459
311.4437	0.1455
311.6552	0.1438
311.8667	0.1451
312.0782	0.1397
312.2897	0.1427
312.5012	0.1427
312.7126	0.1339
312.924	0.1417
313.1355	0.1396
313.3469	0.1358
313.5583	0.1355
313.7696	0.1286
313.981	0.1389
314.1924	0.1331
314.4037	0.1311
314.6151	0.1305
314.8264	0.1311
315.0377	0.1326
315.249	0.128
315.4603	0.1305
315.6716	0.1304
315.8828	0.1291
316.0941	0.1251
316.3053	0.1259
316.5165	0.1327
316.7277	0.1202
316.9389	0.1243
317.1501	0.1297
317.3613	0.1284
317.5724	0.1256
317.7836	0.1225
317.9947	0.1198
318.2058	0.1203
318.417	0.1234
318.6281	0.125
318.8391	0.1293
319.0502	0.1251
319.2613	0.1222
319.4723	0.1197
319.6834	0.1322
319.8944	0.1224
320.1054	0.1218
320.3164	0.1197
320.5274	0.1234
320.7383	0.1299
320.9493	0.1235
321.1602	0.1275
321.3712	0.1246
321.5821	0.124
321.793	0.132
322.0039	0.1269
322.2148	0.1268
322.4257	0.1251
322.6365	0.1243
322.8474	0.1294
323.0582	0.1282
323.269	0.1244
323.4798	0.1255
323.6906	0.1221
323.9014	0.1256
324.1122	0.1203
324.3229	0.13
324.5337	0.1253
324.7444	0.132
324.9551	0.1297
325.1658	0.1284
325.3765	0.1315
325.5872	0.1266
325.7979	0.1244
326.0085	0.128
326.2192	0.1283
326.4298	0.1311
326.6404	0.133
326.851	0.1294
327.0616	0.1301
327.2722	0.1354
327.4828	0.1301
327.6933	0.1372
327.9039	0.1336
328.1144	0.1282
328.3249	0.1324
328.5354	0.1303
328.7459	0.131
328.9564	0.1307
329.1669	0.1378
329.3773	0.1324
329.5878	0.1308
329.7982	0.141
330.0086	0.138
330.219	0.135
330.4294	0.1357
330.6398	0.1352
330.8502	0.1395
331.0605	0.1339
331.2708	0.1309
331.4812	0.1323
331.6915	0.1331
331.9018	0.1337
332.1121	0.1461
332.3224	0.1353
332.5326	0.1392
332.7429	0.1318
332.9531	0.1406
333.1633	0.1343
333.3735	0.1353
333.5837	0.1356
333.7939	0.1399
334.0041	0.1407
334.2143	0.1332
334.4244	0.1363
334.6346	0.1386
334.8447	0.1334
335.0548	0.1373
335.2649	0.1394
335.475	0.1417
335.685	0.1399
335.8951	0.1373
336.1051	0.1414
336.3152	0.1422
336.5252	0.1322
336.7352	0.133
336.9452	0.1379
337.1552	0.1373
337.3652	0.1385
337.5751	0.1435
337.7851	0.1411
337.995	0.142
338.2049	0.142
338.4148	0.1406
338.6247	0.1419
338.8346	0.1311
339.0445	0.1418
339.2543	0.1411
339.4642	0.1347
339.674	0.1418
339.8838	0.1445
340.0936	0.1479
340.3034	0.1391
340.5132	0.1374
340.7229	0.1453
340.9327	0.1555
341.1424	0.1377
341.3522	0.1435
341.5619	0.1502
341.7716	0.1429
341.9813	0.1536
342.1909	0.1498
342.4006	0.152
342.6102	0.1487
342.8199	0.1483
343.0295	0.1519
343.2391	0.1505
343.4487	0.1542
343.6583	0.1549
343.8679	0.1487
344.0774	0.1529
344.287	0.1549
344.4965	0.1599
344.706	0.1586
344.9155	0.1515
345.125	0.1548
345.3345	0.1671
345.544	0.158
345.7534	0.1553
345.9629	0.1607
346.1723	0.1616
346.3817	0.1594
346.5911	0.1616
346.8005	0.1696
347.0099	0.1623
347.2193	0.1723
347.4286	0.1719
347.638	0.1682
347.8473	0.1655
348.0566	0.1677
348.2659	0.1622
348.4752	0.1685
348.6845	0.169
348.8937	0.1765
349.103	0.175
349.3122	0.172
349.5214	0.1713
349.7306	0.1732
349.9398	0.1745
350.149	0.1704
350.3582	0.1724
350.5674	0.1702
350.7765	0.1802
350.9856	0.1716
351.1948	0.1719
351.4039	0.1796
351.613	0.18
351.822	0.1807
352.0311	0.1794
352.2402	0.1758
352.4492	0.1828
352.6582	0.1852
352.8672	0.1834
353.0762	0.1752
353.2852	0.1886
353.4942	0.1862
353.7032	0.1802
353.9121	0.1874
354.1211	0.1819
354.33	0.1891
354.5389	0.1793
354.7478	0.1822
354.9567	0.1877
355.1655	0.1912
355.3744	0.1846
355.5833	0.1866
355.7921	0.1885
356.0009	0.1862
356.2097	0.1774
356.4185	0.18
356.6273	0.1878
356.8361	0.188
357.0448	0.1854
357.2536	0.1974
357.4623	0.1897
357.671	0.1925
357.8797	0.1917
358.0884	0.1811
358.2971	0.1899
358.5057	0.1932
358.7144	0.1927
358.923	0.1944
359.1316	0.198
359.3402	0.1985
359.5488	0.1936
359.7574	0.2029
359.966	0.2065
360.1746	0.1997
360.3831	0.2063
360.5916	0.1944
360.8002	0.2084
361.0087	0.2002
361.2172	0.1977
361.4256	0.2035
361.6341	0.2058
361.8426	0.1996
362.051	0.2135
362.2594	0.213
362.4678	0.211
362.6762	0.2152
362.8846	0.2112
363.093	0.2129
363.3014	0.2261
363.5097	0.2117
363.718	0.2267
363.9264	0.224
364.1347	0.2127
364.343	0.2144
364.5513	0.2176
364.7595	0.2281
364.9678	0.216
365.176	0.2305
365.3842	0.2263
365.5925	0.2217
365.8007	0.2254
366.0089	0.2317
366.217	0.2267
366.4252	0.2271
366.6333	0.2332
366.8415	0.2298
367.0496	0.2343
367.2577	0.2345
367.4658	0.235
367.6739	0.2216
367.882	0.2296
368.09	0.2374
368.2981	0.2425
368.5061	0.2376
368.7141	0.2312
368.9221	0.2493
369.1301	0.2376
369.3381	0.2515
369.5461	0.242
369.754	0.2506
369.962	0.2475
370.1699	0.2479
370.3778	0.2601
370.5857	0.2499
370.7936	0.2476
371.0015	0.2422
371.2093	0.2425
371.4172	0.242
371.625	0.2525
371.8328	0.2451
372.0406	0.2635
372.2484	0.2508
372.4562	0.2575
372.664	0.2485
372.8717	0.2559
373.0795	0.2654
373.2872	0.2594
373.4949	0.2679
373.7026	0.2517
373.9103	0.2531
374.118	0.263
374.3256	0.2652
374.5333	0.2636
374.7409	0.2642
374.9485	0.2759
375.1561	0.2644
375.3637	0.2614
375.5713	0.2716
375.7789	0.2653
375.9864	0.2691
376.194	0.2747
376.4015	0.2613
376.609	0.2686
376.8165	0.2737
377.024	0.271
377.2315	0.2675
377.4389	0.2619
377.6464	0.2752
377.8538	0.2741
378.0612	0.2769
378.2686	0.2799
378.476	0.2825
378.6834	0.2801
378.8908	0.2876
379.0981	0.2799
379.3055	0.2802
379.5128	0.2777
379.7201	0.2865
379.9274	0.2858
380.1347	0.2836
380.342	0.293
380.5492	0.2876
380.7565	0.285
380.9637	0.2791
381.1709	0.2887
381.3781	0.2864
381.5853	0.278
381.7925	0.2846
381.9997	0.2912
382.2068	0.2826
382.4139	0.2868
382.6211	0.295
382.8282	0.304
383.0353	0.2927
383.2424	0.2962
383.4494	0.2952
383.6565	0.2949
383.8635	0.2881
384.0706	0.2991
384.2776	0.2964
384.4846	0.2979
384.6916	0.2934
384.8986	0.3056
385.1055	0.3103
385.3125	0.2987
385.5194	0.3024
385.7263	0.2862
385.9333	0.3002
386.1402	0.2958
386.347	0.2952
386.5539	0.2966
386.7608	0.2866
386.9676	0.2902
387.1744	0.2964
387.3813	0.2893
387.5881	0.2886
387.7948	0.2945
388.0016	0.3115
388.2084	0.2966
388.4151	0.2972
388.6219	0.2893
388.8286	0.2875
389.0353	0.3012
389.242	0.2959
389.4487	0.2864
389.6553	0.2867
389.862	0.2905
390.0686	0.2979
390.2753	0.2899
390.4819	0.287
390.6885	0.2846
390.8951	0.29
391.1016	0.2904
391.3082	0.2838
391.5147	0.2782
391.7213	0.2749
391.9278	0.2835
392.1343	0.2798
392.3408	0.2883
392.5473	0.2761
392.7537	0.2678
392.9602	0.2723
393.1666	0.2752
393.373	0.2741
393.5794	0.2716
393.7858	0.2696
393.9922	0.2707
394.1986	0.2733
394.4049	0.2788
394.6113	0.2722
394.8176	0.2688
395.0239	0.2615
395.2302	0.2645
395.4365	0.2611
395.6428	0.2651
395.8491	0.2606
396.0553	0.2555
396.2615	0.2656
396.4678	0.2661
396.674	0.2585
396.8802	0.2574
397.0863	0.2612
397.2925	0.2739
397.4987	0.2529
397.7048	0.2617
397.9109	0.2585
398.117	0.2517
398.3231	0.2582
398.5292	0.2489
398.7353	0.2455
398.9413	0.26
399.1474	0.2524
399.3534	0.2479
399.5594	0.254
399.7654	0.2535
399.9714	0.2485
400.1774	0.2402
400.3833	0.2579
400.5893	0.2516
400.7952	0.2617
401.0011	0.261
401.207	0.2563
401.4129	0.2582
401.6188	0.2482
401.8247	0.2577
402.0305	0.2521
402.2364	0.2578
402.4422	0.2582
402.648	0.2611
402.8538	0.2427
403.0596	0.2477
403.2654	0.2515
403.4711	0.2469
403.6768	0.2471
403.8826	0.2469
404.0883	0.2477
404.294	0.2619
404.4997	0.2407
404.7054	0.2555
404.911	0.2473
405.1167	0.2514
405.3223	0.2409
405.5279	0.2524
405.7335	0.2438
405.9391	0.2454
406.1447	0.2518
406.3502	0.2543
406.5558	0.2422
406.7613	0.2481
406.9668	0.255
407.1724	0.2519
407.3778	0.2508
407.5833	0.2487
407.7888	0.243
407.9942	0.251
408.1997	0.2554
408.4051	0.2486
408.6105	0.2537
408.8159	0.2509
409.0213	0.246
409.2267	0.2526
409.432	0.2479
409.6374	0.2511
409.8427	0.2522
410.048	0.26
410.2533	0.2598
410.4586	0.2377
410.6639	0.2464
410.8691	0.2342
411.0744	0.2458
411.2796	0.2502
411.4848	0.2508
411.69	0.2329
411.8952	0.2473
412.1004	0.243
412.3056	0.2436
412.5107	0.2498
412.7158	0.2629
412.921	0.2535
413.1261	0.2425
413.3312	0.2452
413.5362	0.2537
413.7413	0.2471
413.9464	0.2329
414.1514	0.2466
414.3564	0.2485
414.5614	0.2382
414.7664	0.2474
414.9714	0.235
415.1764	0.2536
415.3813	0.2484
415.5863	0.2534
415.7912	0.2376
415.9961	0.2427
416.201	0.2572
416.4059	0.235
416.6108	0.2542
416.8156	0.2376
417.0205	0.2498
417.2253	0.2432
417.4301	0.2488
417.6349	0.2304
417.8397	0.2303
418.0445	0.231
418.2492	0.2353
418.454	0.231
418.6587	0.2355
418.8634	0.2409
419.0681	0.2432
419.2728	0.2358
419.4775	0.2494
419.6822	0.2416
419.8868	0.2343
420.0915	0.2365
420.2961	0.2348
420.5007	0.2311
420.7053	0.2326
420.9099	0.2392
421.1144	0.2369
421.319	0.2244
421.5235	0.2223
421.728	0.2385
421.9325	0.2246
422.137	0.2266
422.3415	0.2323
422.546	0.2237
422.7504	0.2185
422.9549	0.2254
423.1593	0.2238
423.3637	0.2249
423.5681	0.2344
423.7725	0.2197
423.9769	0.2181
424.1812	0.2166
424.3856	0.2163
424.5899	0.2079
424.7942	0.2176
424.9985	0.2164
425.2028	0.2307
425.4071	0.2134
425.6113	0.2167
425.8156	0.2139
426.0198	0.2106
426.224	0.2089
426.4282	0.1982
426.6324	0.2105
426.8366	0.2024
427.0407	0.2038
427.2449	0.2019
427.449	0.2106
427.6531	0.2035
427.8572	0.2083
428.0613	0.2021
428.2654	0.1942
428.4694	0.1931
428.6735	0.1993
428.8775	0.196
429.0815	0.1947
429.2855	0.1806
429.4895	0.186
429.6935	0.1869
429.8975	0.1891
430.1014	0.1877
430.3053	0.1897
430.5093	0.1855
430.7132	0.1775
430.9171	0.1861
431.1209	0.1717
431.3248	0.1702
431.5286	0.171
431.7325	0.1859
431.9363	0.181
432.1401	0.1677
432.3439	0.1727
432.5477	0.1679
432.7514	0.1726
432.9552	0.1605
433.1589	0.1629
433.3627	0.1619
433.5664	0.1603
433.7701	0.1683
433.9737	0.1634
434.1774	0.1601
434.3811	0.1426
434.5847	0.1528
434.7883	0.1517
434.9919	0.147
435.1955	0.1501
435.3991	0.148
435.6027	0.1451
435.8062	0.1607
436.0098	0.1405
436.2133	0.1429
436.4168	0.1418
436.6203	0.1295
436.8238	0.1311
437.0272	0.1412
437.2307	0.1296
437.4341	0.137
437.6375	0.1323
437.841	0.1146
438.0443	0.1308
438.2477	0.1207
438.4511	0.1184
438.6545	0.1181
438.8578	0.1157
439.0611	0.1203
439.2644	0.1168
439.4677	0.1141
439.671	0.109
439.8743	0.115
440.0775	0.1125
440.2808	0.1078
440.484	0.1009
440.6872	0.0988
440.8904	0.0964
441.0936	0.1005
441.2967	0.0954
441.4999	0.096
441.703	0.0988
441.9062	0.1035
442.1093	0.1033
442.3124	0.0971
442.5155	0.0856
442.7185	0.0867
442.9216	0.0923
443.1246	0.0871
443.3276	0.0851
443.5307	0.0754
443.7337	0.0884
443.9366	0.0759
444.1396	0.0789
444.3426	0.076
444.5455	0.0745
444.7484	0.0776
444.9513	0.0718
445.1542	0.0778
445.3571	0.0743
445.56	0.0665
445.7628	0.0661
445.9657	0.0703
446.1685	0.0736
446.3713	0.0732
446.5741	0.065
446.7769	0.0759
446.9797	0.0641
447.1824	0.064
447.3852	0.0423
447.5879	0.0569
447.7906	0.0498
447.9933	0.0568
448.196	0.0566
448.3986	0.054
448.6013	0.0504
448.8039	0.055
449.0066	0.067
449.2092	0.0602
449.4118	0.0477
449.6143	0.0563
449.8169	0.0446
450.0195	0.0498
450.222	0.0533
450.4245	0.0496
450.627	0.0501
450.8295	0.0504
451.032	0.0472
451.2345	0.0351
451.4369	0.0379
451.6394	0.0417
451.8418	0.0393
452.0442	0.0429
452.2466	0.0345
452.449	0.0372
452.6513	0.0345
452.8537	0.0343
453.056	0.0285
453.2583	0.0367
453.4607	0.0181
453.663	0.0318
453.8652	0.0241
454.0675	0.0367
454.2697	0.0345
454.472	0.0271
454.6742	0.0352
454.8764	0.037
455.0786	0.0235
455.2808	0.0196
455.4829	0.036
455.6851	0.0279
455.8872	0.0168
456.0893	0.0285
456.2915	0.0326
456.4935	0.0339
456.6956	0.0234
456.8977	0.0231
457.0997	0.031
457.3018	0.0239
457.5038	0.0268
457.7058	0.0314
457.9078	0.0172
458.1098	0.0304
458.3117	0.0209
458.5137	0.0115
458.7156	0.0299
458.9175	0.0286
459.1194	0.0201
459.3213	0.0155
459.5232	0.0234
459.725	0.0235
459.9269	0.0197
460.1287	0.0144
460.3305	0.0195
460.5323	0.0201
460.7341	0.0199
460.9359	0.0111
461.1376	0.0231
461.3394	0.0219
461.5411	0.0189
461.7428	0.0194
461.9445	0.0167
462.1462	0.01
462.3479	0.0136
462.5495	0.0176
462.7512	0.0339
462.9528	0.0225
463.1544	0.0204
463.356	0.0085
463.5576	0.0214
463.7592	0.0159
463.9607	0.0103
464.1623	0.0135
464.3638	0.0005
464.5653	0.0117
464.7668	0.0108
464.9683	0.0204
465.1697	0.0102
465.3712	0.0064
465.5726	0.0109
465.7741	0.0167
465.9755	0.0103
466.1769	0.0058
466.3782	0.0076
466.5796	0.0249
466.7809	0.0117
466.9823	0.0101
467.1836	0.0149
467.3849	0.0098
467.5862	0.0063
467.7875	0.0172
467.9887	0.0209
468.19	0.0122
468.3912	0.0148
468.5924	0.0091
468.7936	0.0082
468.9948	0.0118
469.196	0.0046
469.3972	0.0015
469.5983	0.0138
469.7994	0.0079
470.0006	0.0068
470.2017	0.01
470.4027	0.0253
470.6038	0.0066
470.8049	0.0097
471.0059	0.0105
471.2069	0.0098
471.408	0.016
471.6089	0.0153
471.8099	0.0156
472.0109	0.0082
472.2119	0.0139
472.4128	0.004
472.6137	0.0127
472.8146	0.0043
473.0155	0.0162
473.2164	0.0083
473.4173	-0.0002
473.6181	-0.0027
473.819	0.0105
474.0198	0.014
474.2206	-0.0018
474.4214	0.0157
474.6222	-0.0037
474.8229	0.0054
475.0237	0.0133
475.2244	0.0049
475.4251	-0.0002
475.6258	0.0044
475.8265	0.0115
476.0272	0.0067
476.2278	0.0052
476.4285	0.0042
476.6291	0.0134
476.8297	0.0089
477.0303	0.0064
477.2309	0.0131
477.4315	0.0126
477.632	-0.0082
477.8326	0.0085
478.0331	0.01
478.2336	0.0059
478.4341	0.0113
478.6346	0.0093
478.8351	-0.0017
479.0355	0.0124
479.236	0.0155
479.4364	0.0082
479.6368	0.011
479.8372	0.0035
480.0376	0.0021
480.2379	0.0113
480.4383	0.012
480.6386	-0.004
480.8389	0.0018
481.0392	0.002
481.2395	0.014
481.4398	0.0028
481.6401	0.009
481.8403	0.0028
482.0405	0.006
482.2408	0.0157
482.441	0.0112
482.6411	0.01
482.8413	0.0044
483.0415	0.0167
483.2416	0.0085
483.4417	0.0092
483.6419	-0.0035
483.8419	0.0107
484.042	0.0093
484.2421	0.002
484.4422	0.0028
484.6422	0.0085
484.8422	0.0054
485.0422	0.0051
485.2422	0.0056
485.4422	0.0037
485.6422	0.0025
485.8421	0.0029
486.042	0.015
486.242	0.0013
486.4419	0.0037
486.6417	-0.0028
486.8416	0.0055
487.0415	0.0008
487.2413	0.0034
487.4411	0.0039
487.641	-0.0036
487.8408	0.0065
488.0405	0.0104
488.2403	-0.0037
488.4401	0.0023
488.6398	0.0152
488.8395	0.0074
489.0392	0.0075
489.2389	0.0094
489.4386	-0.0029
489.6383	0.0136
489.8379	0.0084
490.0376	0.0017
490.2372	0.0025
490.4368	0.0025
490.6364	-0.0009
490.836	0.0018
491.0355	0.0034
491.2351	0.0023
491.4346	0.0097
491.6341	0.0056
491.8336	0.01
492.0331	0.0102
492.2326	0.014
492.432	0.0075
492.6315	0.0129
492.8309	0.0071
493.0303	0.0085
493.2297	0.0093
493.4291	0.005
493.6284	0.0113
493.8278	0.0026
494.0271	0.0053
494.2264	0.0039
494.4257	0.0075
494.625	0.0012
494.8243	0.0048
495.0236	0.012
495.2228	0.0155
495.422	0.0103
495.6213	0.0027
495.8205	0.0085
496.0196	0.0099
496.2188	0.0061
496.418	0.0046
496.6171	0.0056
496.8162	0.0102
497.0153	0.005
497.2144	0.0063
497.4135	0.0076
497.6126	0.0054
497.8116	0.0062
498.0107	0.0117
498.2097	0.0022
498.4087	0.0013
498.6077	-0.0119
498.8067	0.0111
499.0056	-0.0009
499.2046	0.0075
499.4035	0.003
499.6024	0.0001
499.8013	0.0039
500.0002	0.0076
500.199	0.0132
500.3979	0.0048
500.5967	0.0095
500.7956	0.0117
500.9944	-0.0003
501.1932	0.0153
501.3919	0.0135
501.5907	0.0141
501.7895	0.0062
501.9882	0.0059
502.1869	0.0155
502.3856	0.0003
502.5843	-0
502.783	-0.0017
502.9816	0.008
503.1803	0.0035
503.3789	0.0119
503.5775	0.002
503.7761	0.0006
503.9747	0.0109
504.1732	0.0028
504.3718	0.019
504.5703	0.0065
504.7689	-0.0007
504.9674	0.0048
505.1658	0.005
505.3643	0.0097
505.5628	0.0045
505.7612	0.0121
505.9597	0.0023
506.1581	0.0028
506.3565	0.0045
506.5549	0.0053
506.7532	-0.0057
506.9516	0.0047
507.1499	0.0013
507.3482	0.0072
507.5465	0.0103
507.7448	0.0089
507.9431	0.0048
508.1414	-0.0045
508.3396	0.0039
508.5379	0.0081
508.7361	0.0108
508.9343	0.0092
509.1325	0.0133
509.3306	0.0003
509.5288	-0.0034
509.7269	0.013
509.9251	0.0023
510.1232	0.0104
510.3213	0.0097
510.5193	0.0045
510.7174	0.0051
510.9154	0.0058
511.1135	0.0007
511.3115	-0.0002
511.5095	0.0074
511.7075	-0.0027
511.9055	0.0042
512.1034	0.008
512.3014	0.0058
512.4993	0.009
512.6972	0.005
512.8951	-0.0013
513.093	0.0069
513.2908	0.0149
513.4887	-0.0024
513.6865	0.0126
513.8844	0.0106
514.0822	0.0144
514.2799	0.0034
514.4777	0
514.6755	0.0114
514.8732	0.0011
515.0709	0.0039
515.2687	0.0002
515.4664	0.0117
515.664	0.0076
515.8617	0.0123
516.0594	0.0129
516.257	0.0001
516.4546	0.0144
516.6522	0.0096
516.8498	0.0063
517.0474	0.0088
517.2449	0.0003
517.4425	0.0046
517.64	0.014
517.8375	0.0081
518.035	-0.0045
518.2325	-0.01
518.43	0.0041
518.6274	-0.0018
518.8249	-0.0005
519.0223	0.0075
519.2197	0.0075
519.4171	0.0009
519.6145	0.0092
519.8118	-0.0067
520.0092	0.002
520.2065	0.0172
520.4038	0.0004
520.6011	0.0055
520.7984	0.0104
520.9956	0.0143
521.1929	0.0068
521.3901	0.0111
521.5874	0.0064
521.7846	-0.0016
521.9818	0.0018
522.1789	-0.0043
522.3761	0.0105
522.5732	0.0036
522.7704	-0.0002
522.9675	0.0062
523.1646	-0.0027
523.3617	0.0129
523.5587	0.0105
523.7558	0.0103
523.9528	0.0158
524.1498	0.0105
524.3468	0.0037
524.5438	0.0041
524.7408	0.0038
524.9378	0.0088
525.1347	0.0058
525.3316	-0.0035
525.5285	-0.0012
525.7254	0.0046
525.9223	0.0055
526.1192	0.0036
526.316	0.0121
526.5129	0.0059
526.7097	-0.0061
526.9065	0.02
527.1033	0.0103
527.3	0.0025
527.4968	0.0079
527.6935	0.0015
527.8903	0.0081
528.087	0.0003
528.2837	0.0157
528.4804	-0.003
528.677	0.0158
528.8737	0.0111
529.0703	0.0074
529.2669	0.0079
529.4635	0.0025
529.6601	0.0027
529.8567	-0.0015
530.0532	0.0009
530.2498	0.0033
530.4463	-0.0035
530.6428	0.009
530.8393	0.0117
531.0358	-0.0009
531.2322	0.0057
531.4287	0.0102
531.6251	-0.0055
531.8215	0.0048
532.0179	0.0046
532.2143	0.012
532.4107	0.0132
532.607	0.0043
532.8034	0.0043
532.9997	0.0047
533.196	-0.0003
533.3923	0.011
533.5886	0.0101
533.7848	0.0038
533.9811	0.0066
534.1773	-0.0023
534.3735	0.016
534.5697	0.0085
534.7659	0.0111
534.9621	0.0091
535.1582	0.0038
535.3544	0.0057
535.5505	0.0139
535.7466	0.014
535.9427	0.0105
536.1387	-0.0077
536.3348	0.0097
536.5308	0.0044
536.7269	0.0064
536.9229	0.0068
537.1189	0.0075
537.3148	0.0089
537.5108	0.0066
537.7068	0.0032
537.9027	-0.0119
538.0986	0.015
538.2945	-0.007
538.4904	0.0007
538.6863	0.01
538.8821	0.0096
539.078	0.0079
539.2738	0.0021
539.4696	0.0082
539.6654	0.0097
539.8611	0.0049
540.0569	0.0043
540.2526	0.0075
540.4484	-0.0002
540.6441	0.0039
540.8398	0.0121
541.0355	0.0023
541.2311	-0.0014
541.4268	0.0135
541.6224	0.0113
541.818	0.0126
542.0136	0.0112
542.2092	0.0166
542.4048	0.002
542.6003	-0.0061
542.7959	0.0065
542.9914	0.0057
543.1869	0.0043
543.3824	0.0029
543.5779	0.0114
543.7734	0.0166
543.9688	0.0038
544.1642	-0.0032
544.3596	0.0141
544.555	0.0024
544.7504	0.0121
544.9458	0.0052
545.1411	-0.001
545.3365	0.0044
545.5318	0.0039
545.7271	0.0084
545.9224	0.0023
546.1177	0.0065
546.3129	0.0003
546.5081	-0.0061
546.7034	0.0085
546.8986	0.0088
547.0938	0.0131
547.289	0.0142
547.4841	0.0081
547.6793	0.0074
547.8744	0.0056
548.0695	0.0022
548.2646	0.004
548.4597	0.0057
548.6548	0.0192
548.8498	0.0112
549.0448	0.0084
549.2399	0.0105
549.4349	0.0142
549.6298	0.0116
549.8248	0.0112
550.0198	0.0122
550.2147	0.0067
550.4096	-0.0018
550.6045	0.0094
550.7994	0.0013
550.9943	0.0108
551.1892	-0.0164
551.384	0.0129
551.5788	0.0073
551.7737	0.006
551.9685	-0.0015
552.1632	0.0007
552.358	0.0017
552.5528	0.0063
552.7475	-0.0005
552.9422	0.013
553.1369	0.0053
553.3316	0.0004
553.5263	0.016
553.7209	0.0026
553.9156	-0.0011
554.1102	0
554.3048	-0.0049
554.4994	0.0031
554.694	0.0077
554.8885	0.0158
555.0831	0.0103
555.2776	0.0107
555.4721	0.0049
555.6666	0.0046
555.8611	0.0113
556.0555	0.0041
556.25	0.0164
556.4444	-0.0073
556.6388	-0.0124
556.8332	0.0039
557.0276	-0.0022
557.222	-0.0082
557.4163	0.0108
557.6107	-0.005
557.805	0.0017
557.9993	-0.0037
558.1936	-0.0061
558.3879	0.0117
558.5821	0.0057
558.7764	-0.0004
558.9706	0.0116
559.1648	-0.0041
559.359	-0.006
559.5532	0.0025
559.7473	-0.0015
559.9415	0.0042
560.1356	0.0162
560.3297	-0.0059
560.5238	0.0085
560.7179	0.0048
560.9119	0.0065
561.106	-0.0064
561.3	0.0018
561.494	0.0016
561.688	0.0044
561.882	0.0032
562.076	0.0107
562.2699	0.0189
562.4639	0.016
562.6578	0.0137
562.8517	0.0063
563.0456	0.0096
563.2395	0.0144
563.4333	0.0043
563.6272	0.006
563.821	0.0057
564.0148	0.0084
564.2086	0.0131
564.4024	0.0137
564.5961	0.0108
564.7899	0.0065
564.9836	-0.0034
565.1773	0.0107
565.371	0.0098
565.5647	0.0048
565.7584	0.0033
565.952	0.0162
566.1456	0.0083
566.3393	-0.001
566.5329	0.0044
566.7264	0.012
566.92	0.0013
567.1136	0.0037
567.3071	0.0043
567.5006	0.0125
567.6941	0.0088
567.8876	0.0035
568.0811	0.0111
568.2745	0.0016
568.468	0.004
568.6614	0.0126
568.8548	0.0112
569.0482	0.0122
569.2416	0.0076
569.4349	0.0072
569.6283	0.002
569.8216	0.0051
570.0149	0.0037
570.2082	0.0091
570.4015	0.0029
570.5947	0.0052
570.788	0.0076
570.9812	0.0023
571.1744	0.0101
571.3676	0.0031
571.5608	0.001
571.754	0.0136
571.9471	0.0059
572.1402	0.0016
572.3333	0.0052
572.5264	0.0082
572.7195	0.0066
572.9126	0.0044
573.1057	0.0031
573.2987	0.0008
573.4917	0.0012
573.6847	0.0025
573.8777	0.0085
574.0707	0.009
574.2636	0.0058
574.4566	0.0041
574.6495	0.0041
574.8424	0.0047
575.0353	0.0088
575.2281	0.0064
575.421	0.004
575.6138	0.007
575.8067	0.006
575.9995	0.0064
576.1923	0.0031
576.385	0.0058
576.5778	0.0083
576.7706	0.004
576.9633	0.0114
577.156	-0.0012
577.3487	0.0028
577.5414	0.0069
577.734	-0.0012
577.9267	0.0082
578.1193	0.0081
578.3119	0.002
578.5045	0.003
578.6971	0.0014
578.8897	0.0012
579.0822	0.0071
579.2747	0.0031
579.4673	0.003
579.6598	0.0092
579.8522	0.0007
580.0447	0.009
580.2372	0.01
580.4296	0.0065
580.622	0.0035
580.8144	0.0075
581.0068	0.0052
581.1992	0.0045
581.3915	0
581.5839	0.0063
581.7762	0.0025
581.9685	0.0041
582.1608	0.0052
582.353	0.0011
582.5453	0.0035
582.7375	0.0099
582.9298	-0.0009
583.122	0.0022
583.3142	0.0094
583.5063	0.0036
583.6985	0.0009
583.8906	0.0015
584.0827	0.0062
584.2749	0.0032
584.4669	0.007
584.659	0.0064
584.8511	0.009
585.0431	0.004
585.2352	0.0061
585.4272	0.0047
585.6192	0.0048
585.8111	-0.0011
586.0031	0.0029
586.195	-0.0012
586.387	0.002
586.5789	0.0065
586.7708	0.0061
586.9627	0.0078
587.1545	0.0035
587.3464	0.0087
587.5382	0.0056
587.73	0.011
587.9218	0.0001
588.1136	-0.0027
588.3053	0.0069
588.4971	-0.001
588.6888	0.005
588.8805	-0.0004
589.0722	0.0089
589.2639	0.0027
589.4556	0.0058
589.6472	0.01
589.8389	0.0086
590.0305	0.0018
590.2221	0.011
590.4137	0.0002
590.6052	0.0007
590.7968	0.0033
590.9883	0.0045
591.1798	0.0051
591.3713	0.0043
591.5628	0.0026
591.7543	0.0071
591.9458	0.0023
592.1372	0.0072
592.3286	0.0011
592.52	0.0055
592.7114	0.003
592.9028	0.009
593.0941	0.0014
593.2855	0.0066
593.4768	0.0073
593.6681	0.0094
593.8594	0.005
594.0506	0.0038
594.2419	0.0038
594.4331	0.0063
594.6244	-0.0033
594.8156	0.0078
595.0067	-0.0023
595.1979	0.0002
595.3891	0.0079
595.5802	0.0135
595.7713	0.0089
595.9624	0.0138
596.1535	0.0079
596.3446	0.0062
596.5357	0.004
596.7267	0.0035
596.9177	0.0042
597.1087	0.0001
597.2997	0.0091
597.4907	0.0011
597.6817	0.0081
597.8726	0.0095
598.0635	0.0037
598.2544	0.0125
598.4453	0.0064
598.6362	0.0017
598.827	0.0063
599.0179	0.0046
599.2087	0.0091
599.3995	0.0101
599.5903	0.0127
599.7811	0.0106
599.9718	0.0009
600.1626	0.0018
600.3533	-0.0004
600.544	0.0024
600.7347	0.0045
600.9254	0.0089
601.116	0.009
601.3067	0.0069
601.4973	0.0066
601.6879	0.0068
601.8785	0.0088
602.0691	0.0028
602.2596	0.0057
602.4502	0.0074
602.6407	0.0094
602.8312	0.0056
603.0217	0.0049
603.2122	0.0033
603.4027	0.0088
603.5931	0.0001
603.7835	0.0098
603.9739	-0.0022
604.1643	0.0085
604.3547	0.0094
604.5451	0.0167
604.7354	-0.0022
604.9257	0.005
605.116	0.0016
605.3063	0.0065
605.4966	0.0005
605.6869	0.0046
605.8771	0.008
606.0673	0.005
606.2575	0.0024
606.4477	0.0078
606.6379	-0.0008
606.8281	0.0003
607.0182	0.0032
607.2083	-0.0007
607.3985	0.0069
607.5885	0.0039
607.7786	0.0053
607.9687	0.0091
608.1587	0.0044
608.3488	0.0052
608.5388	-0.0039
608.7288	-0.0021
608.9187	0.002
609.1087	0.003
609.2986	0.0048
609.4886	0.0009
609.6785	0.0045
609.8684	-0.001
610.0582	-0.0022
610.2481	-0.0004
610.4379	0.0039
610.6278	0.0013
610.8176	0.0107
611.0074	0.0079
611.1971	0.0075
611.3869	0.0065
611.5766	-0.004
611.7664	0.0055
611.9561	0.0076
612.1458	0.0038
612.3354	0.0112
612.5251	0.0058
612.7147	0.008
612.9044	-0.0055
613.094	0.0053
613.2836	0.0031
613.4731	0.0034
613.6627	0.0085
613.8522	0.005
614.0417	0.0072
614.2313	0.0039
614.4207	0.0015
614.6102	0.0082
614.7997	0.0047
614.9891	0.0048
615.1785	-0.0051
615.3679	0.0083
615.5573	0.0045
615.7467	0.003
615.9361	-0.0002
616.1254	0.0127
616.3147	0.0029
616.504	0.0029
616.6933	0.0031
616.8826	-0.0045
617.0718	0.0085
617.2611	0.011
617.4503	0.0068
617.6395	0.0088
617.8287	0.0035
618.0179	0.0071
618.207	0.0081
618.3961	-0.0044
618.5853	0.0037
618.7744	0.0026
618.9634	0.0082
619.1525	0.001
619.3416	-0.0001
619.5306	0.0164
619.7196	0.0108
619.9086	0.0072
620.0976	-0.0035
620.2866	0.0135
620.4755	0.0063
620.6645	0.0208
620.8534	0.0049
621.0423	0.0037
621.2312	-0.0044
621.42	0.004
621.6089	0.0017
621.7977	0.0046
621.9865	0.0065
622.1753	-0.0034
622.3641	-0.0082
622.5529	-0.0003
622.7416	-0.0005
622.9303	-0.0011
623.1191	0.0105
623.3078	0.0003
623.4964	0.0023
623.6851	0.0006
623.8737	0.0014
624.0624	0.0006
624.251	0.0062
624.4396	0.0074
624.6282	0.0139
624.8167	0.003
625.0053	0.0122
625.1938	0.0138
625.3823	0.0106
625.5708	-0.0036
625.7593	-0.0016
625.9477	0.0106
626.1362	0.0051
626.3246	0.0003
626.513	-0.0005
626.7014	0.0073
626.8898	0.0171
627.0781	0.0077
627.2665	0.0026
627.4548	0.0044
627.6431	0.0151
627.8314	0.0253
628.0197	0.003
628.2079	0.0007
628.3962	-0.0008
628.5844	0.0075
628.7726	-0.0001
628.9608	0.0094
629.1489	0.0093
629.3371	-0.0027
629.5252	0.014
629.7134	-0.0029
629.9015	0.0104
630.0895	-0.006
630.2776	0.0096
630.4657	0.0065
630.6537	0.0083
630.8417	-0.0105
631.0297	0.0074
631.2177	-0.0014
631.4057	0.008
631.5936	-0.0064
631.7815	0.0185
631.9695	0.0036
632.1574	0.018
632.3452	0.0057
632.5331	0.008
632.7209	0.0106
632.9088	0.0091
633.0966	0.0246
633.2844	0.0034
633.4722	-0.0013
633.6599	0.0181
633.8477	0.0063
634.0354	0.0085
634.2231	-0.0123
634.4108	0.0099
634.5985	0.0111
634.7861	-0.0036
634.9738	0.0015
635.1614	0.0089
635.349	0.0176
635.5366	0.0013
635.7242	0.0042
635.9117	0.0094
636.0993	0.0131
636.2868	-0.0035
636.4743	-0.0031
636.6618	-0.0083
636.8492	0.018
637.0367	-0.0056
637.2241	-0.0052
637.4115	0.0218
637.5989	-0.0069
637.7863	0.0223
637.9737	0.0098
638.161	0.0036
638.3484	-0.0078
638.5357	-0.0106
638.723	0.0194
638.9103	-0.0102
639.0975	0.0067
639.2848	0.0096
639.472	0.0153
639.6592	-0.0146
639.8464	0.0048
640.0336	0.0212
640.2208	-0.0048
640.4079	-0.0161
640.595	-0.0012
640.7821	0.0141
640.9692	0.0061
641.1563	0.0127
641.3434	0.0097
641.5304	0.0128
641.7174	0.0206
641.9044	0.0077
642.0914	0.0183
642.2784	-0.0061
642.4653	-0.0156
642.6523	0.006
642.8392	0
643.0261	0.0029
643.213	-0.0002
643.3999	0.0366
643.5867	0.0151
643.7735	-0.005
643.9604	0.0123
644.1472	0.0065
644.3339	0.0049
644.5207	-0.0051
644.7075	0.0121
644.8942	-0.0191
645.0809	-0.0032
645.2676	0.0022
645.4543	-0.0149
645.6409	0.0238
645.8276	-0.006
646.0142	-0.0008
646.2008	0.0075
646.3874	0.007
646.574	0.0081
646.7605	0.0196
646.9471	-0.0192
647.1336	-0.0243
647.3201	0.0132
647.5066	0.0231
647.6931	0.0062
647.8795	0.004
648.0659	0.0083
648.2524	0.0128
648.4388	0.0019
648.6252	0.0187
648.8115	0.0124
648.9979	0.0022
649.1842	0.0135
649.3705	0.0019
649.5568	0.0126
649.7431	0.0033
649.9294	-0.0002
650.1156	-0.0103
650.3018	0.001
650.488	0.0098
650.6742	0.0237
650.8604	0.006
651.0466	0.0032
651.2327	0.0055
651.4188	-0.0031
651.6049	0.0058
651.791	0.0031
651.9771	0.017
652.1632	0.0044
652.3492	-0.0004
652.5352	0.0201
652.7212	0.0095
652.9072	0.011
653.0932	0.0149
653.2791	0.0025
653.465	0.0025
653.651	0.0103
653.8369	-0.001
654.0227	-0.0004
654.2086	0.02
654.3944	0.0067
654.5803	-0.0015
654.7661	-0.0021
654.9519	-0.0029
655.1377	0
655.3234	0
655.5092	0
655.6949	0
655.8806	0
656.0663	0
656.2519	0
656.4376	0
656.6232	0
656.8088	0
656.9945	0
657.18	0
657.3656	0
657.5511	0
657.7367	0
657.9222	0
658.1077	0
658.2932	0
658.4786	0
658.6641	0
658.8495	0
659.0349	0
659.2203	0
659.4057	0
659.591	0.1408
659.7764	0.0323
659.9617	0.0138
660.147	0.016
660.3323	-0.0008
660.5176	-0.0047
660.7028	-0.0128
660.888	0.0113
661.0733	-0.0029
661.2585	0.0128
661.4436	0.0111
661.6288	0.0229
661.8139	-0.0101
661.9991	-0.0086
662.1842	0.0011
662.3693	-0.0062
662.5544	0.0124
662.7394	0.0204
662.9245	0.0089
663.1095	-0.0158
663.2945	0.0023
663.4795	0.0072
663.6644	0.0043
663.8494	0.0132
664.0343	-0.007
664.2193	-0.0021
664.4042	0.0155
664.589	0.0297
664.7739	0.0122
664.9587	-0.0029
665.1436	-0.0072
665.3284	0.0026
665.5132	0.0014
665.698	0.0031
665.8827	0.0117
666.0675	-0.0062
666.2522	0.0197
666.4369	0.0043
666.6216	0.0309
666.8063	-0.0316
666.9909	-0.0165
667.1756	-0.0022
667.3602	0.007
667.5448	-0.0118
667.7294	0.0163
667.9139	0.0025
668.0985	0.0038
668.283	-0.0097
668.4675	-0.0058
668.652	0.0098
668.8365	0.0122
669.0209	0.0158
669.2054	-0.0037
669.3898	0.0122
669.5742	0.0352
669.7586	0.0037
669.943	0.0099
670.1273	-0.013
670.3117	0.005
670.496	-0.0009
670.6803	-0.013
670.8646	-0.0261
671.0488	0.0336
671.2331	-0.0077
671.4173	0.0067
671.6015	-0.002
671.7857	0.0104
671.9699	0.0051
672.1541	0.0016
672.3382	0.0046
672.5223	0
672.7064	0.0036
672.8905	-0.0118
673.0746	-0.0047
673.2587	0.015
673.4427	0.0257
673.6267	0.0184
673.8107	0.0214
673.9947	0.0143
674.1787	-0.0015
674.3626	0.0099
674.5465	0.0071
674.7304	0.002
674.9143	0.0134
675.0982	0.0025
675.2821	-0.0023
675.4659	-0.0304
675.6497	-0.0026
675.8335	-0.0014
676.0173	-0.0033
676.2011	0.0335
676.3849	0.0191
676.5686	0.0179
676.7523	-0.0013
676.936	-0.002
677.1197	-0.0049
677.3034	0.0354
677.487	-0.0004
677.6706	0.0088
677.8542	0.0062
678.0378	0.0069
678.2214	-0.0061
678.405	-0.0007
678.5885	0.0063
678.772	0.0005
678.9555	0.0091
679.139	0.0108
679.3225	-0.0009
679.5059	0.0093
679.6894	0.0012
679.8728	-0.0093
680.0562	0.0113
680.2395	-0.0004
680.4229	-0.0076
680.6062	0.0171
680.7896	-0.0041
680.9729	0.0173
681.1562	0.0017
681.3394	0.0003
681.5227	0.0038
681.7059	-0.0103
681.8891	0.0119
682.0723	0.0102
682.2555	-0.0161
682.4387	0.0036
682.6218	0.0064
682.805	0.0058
682.9881	0.003
683.1712	0.0248
683.3542	0.0128
683.5373	-0.0186
683.7203	0.019
683.9034	-0.0061
684.0864	0.0111
684.2694	-0.001
684.4523	0.0171
684.6353	0.0171
684.8182	-0.0096
685.0011	-0.0008
685.184	0.0121
685.3669	0.023
685.5498	-0.0003
685.7326	-0.0018
685.9154	0.002
686.0982	0.0148
686.281	-0.0094
686.4638	0.015
686.6465	0.0098
686.8293	-0.0062
687.012	0.0068
687.1947	0.0118
687.3774	0.0041
687.56	-0.0124
687.7427	-0.0007
687.9253	-0.0072
688.1079	0.0162
688.2905	-0.0048
688.4731	0.0245
688.6556	0.0009
688.8382	-0.014
689.0207	0.0164
689.2032	0.0317
689.3857	-0.0125
689.5681	-0.0049
689.7506	0.0263
689.933	-0.0192
690.1154	0.0198
690.2978	0.0014
690.4802	0.0213
690.6626	0.0211
690.8449	0.0087
691.0272	0.0063
691.2095	-0.011
691.3918	0.0111
691.5741	0.0146
691.7563	0.0053
691.9386	0.0273
692.1208	-0.008
692.303	-0.0094
692.4852	0.0157
692.6673	-0.0032
692.8495	-0.0127
693.0316	0.0058
693.2137	0.0256
693.3958	-0.0018
693.5778	0.0153
693.7599	-0.0045
693.9419	-0.0279
694.1239	0.0066
694.3059	0.0201
694.4879	-0.0037
694.6699	-0.0155
694.8518	0.0246
695.0337	0.0149
695.2157	0.0089
695.3975	0.0091
695.5794	-0.0366
695.7613	0.0191
695.9431	-0.0131
696.1249	0.0108
696.3067	-0.0159
696.4885	0.0056
696.6703	0.0123
696.852	-0.0105
697.0337	0.0187
697.2154	-0.003
697.3971	0.0059
697.5788	0.0216
697.7605	-0.0021
697.9421	0.0204
698.1237	0.0236
698.3053	-0.0068
698.4869	0.0219
698.6685	-0.0112
698.85	0.0172
699.0315	-0.0009
699.213	0.0074
699.3945	0.0001
699.576	0.0354
699.7575	0.0063
699.9389	-0.0027
700.1203	0.0213
700.3017	0.0136
700.4831	0.0336
700.6645	0.0173
700.8458	0.0036
701.0271	0.0093
701.2084	0.0024
701.3897	0.0046
701.571	0.0042
701.7523	-0.0003
701.9335	0.0149
702.1147	0.0113
702.2959	-0.0108
702.4771	0.0226
702.6583	0.0214
702.8394	-0.0268
703.0205	0.0101
703.2016	-0.0025
703.3827	-0.0165
703.5638	0.0306
703.7449	0.0218
703.9259	0.011
704.1069	0.0054
704.2879	0.0008
704.4689	-0.0086
704.6499	0.0254
704.8308	0.0288
705.0117	-0.0105
705.1927	0.0223
705.3735	0.0372
705.5544	-0.0044
705.7353	-0.0091
705.9161	-0.0351
706.0969	0.0047
706.2777	0.0022
706.4585	0.0048
706.6393	0.0211
706.82	0.0238
707.0007	-0.0084
707.1815	-0.0069
707.3621	0.03
707.5428	0.0131
707.7235	0.0126
707.9041	0.0139
708.0847	0.0058
708.2653	0.027
708.4459	0.0015
708.6265	-0.0086
708.807	0.0088
708.9875	-0.0136
709.168	0.0297
709.3485	0.0185
709.529	0.0043
709.7095	-0.0071
709.8899	0.0184
710.0703	0.0149
710.2507	-0.004
710.4311	-0.0152
710.6115	0.0164
710.7918	0.014
710.9721	0.0085
711.1524	-0.0272
711.3327	-0.0019
711.513	-0.0274
711.6932	0.0284
711.8735	0.02
712.0537	-0.0183
712.2339	0.0066
712.4141	0.0462
712.5942	-0.0237
712.7744	0.0165
712.9545	0.0156
713.1346	-0.0012
713.3147	0.0083
713.4947	0.0014
713.6748	0.0215
713.8548	-0.0034
714.0348	0.018
714.2148	0.028
714.3948	0.009
714.5748	0.0112
714.7547	0.0077
714.9346	0.0316
715.1145	0.0091
715.2944	-0.0138
715.4743	0.0331
715.6541	-0.0322
715.834	0.032
716.0138	0.0205
716.1936	-0.001
716.3733	0.0128
716.5531	0.0099
716.7328	0.0063
716.9126	0.0061
717.0923	-0.023
717.2719	0.0079
717.4516	0.0137
717.6312	-0.0124
717.8109	0.0201
717.9905	-0.0082
718.1701	-0.0032
718.3496	0.002
718.5292	-0.0011
718.7087	0.0122
718.8882	0.0323
719.0677	0.0023
719.2472	0.0272
719.4267	-0.0025
719.6061	-0.0059
719.7856	0.0186
719.965	0.0257
720.1443	-0.0194
720.3237	0.0013
720.5031	-0.0011
720.6824	-0.0086
720.8617	0.0016
721.041	0.0206
721.2203	0.0001
721.3995	-0.0026
721.5788	-0.0019
721.758	-0.015
721.9372	0.0045
722.1164	0.0123
722.2956	0.0103
722.4747	-0.0051
722.6538	0.0072
722.8329	0.0303
723.012	0.0183
723.1911	-0.0041
723.3702	0.0322
723.5492	-0.013
723.7282	0.0158
723.9072	0.0082
724.0862	-0.0114
724.2652	0.0167
724.4441	0.0046
724.623	-0.0114
724.8019	-0.0042
724.9808	0.0101
725.1597	0.0104
725.3385	0.0089
725.5174	-0.0149
725.6962	0.026
725.875	0.027
726.0538	0.0213
726.2325	0.0306
726.4112	-0.0168
726.59	-0.0064
726.7687	-0.0217
726.9474	0.0029
727.126	0.012
727.3047	-0.0387
727.4833	0.0115
727.6619	-0.0074
727.8405	0.0204
728.0191	0.0177
728.1976	0.0068
728.3762	-0.0039
728.5547	-0.0142
728.7332	0.0348
728.9116	0.0052
729.0901	0.0038
729.2686	0.0125
729.447	-0.0003
729.6254	-0.0028
729.8038	0.0174
729.9821	-0.0297
730.1605	0.0006
730.3388	-0.0026
730.5171	0.01
730.6954	-0.0141
730.8737	-0.0094
731.0519	-0.0007
731.2302	0.0052
731.4084	-0.0055
731.5866	0.0015
731.7648	0.0298
731.9429	0.0193
732.1211	-0.002
732.2992	0.0047
732.4773	0.0213
732.6554	-0.0147
732.8335	0.0314
733.0115	-0.0002
733.1896	-0.0139
733.3676	0.0107
733.5456	0
733.7235	0.0036
733.9015	-0.0013
734.0794	-0.0059
734.2574	-0.0164
734.4353	-0.0017
734.6131	-0.0063
734.791	0.0048
734.9689	0.0006
735.1467	-0.0008
735.3245	0.0156
735.5023	0.0113
735.68	-0.0051
735.8578	0.0153
736.0355	-0.0018
736.2132	0.0078
736.3909	0.0188
736.5686	0.0052
736.7463	-0.0349
736.9239	0.0202
737.1015	0.0003
737.2791	0.0048
737.4567	0.0001
737.6343	0.0029
737.8118	0.0269
737.9894	-0.0141
738.1669	-0.0039
738.3444	0.0128
738.5218	-0.0052
738.6993	0.0203
738.8767	-0.001
739.0541	0.0053
739.2315	0.0067
739.4089	0.0301
739.5863	0.0029
739.7636	0.0084
739.9409	-0.0139
740.1182	0.0161
740.2955	0.0183
740.4728	-0.014
740.65	-0.0173
740.8272	0.0386
741.0044	0.0146
741.1816	0.0325
741.3588	-0.0116
741.5359	0.0061
741.7131	-0.0034
741.8902	0.0265
742.0673	-0.0197
742.2444	0.025
742.4214	0.0123
742.5985	-0.0106
742.7755	0.0048
742.9525	-0.0242
743.1295	-0.021
743.3064	-0.0259
743.4834	0.0026
743.6603	0.0349
743.8372	-0.0572
744.0141	0.0284
744.191	0.0217
744.3678	-0.0288
744.5446	-0.0115
744.7215	0.0247
744.8982	0.0117
745.075	0.0874
745.2518	-0.0026
745.4285	0.0105
745.6052	-0.0433
745.7819	-0.0087
745.9586	0.011
746.1353	-0.0472
746.3119	0.0139
746.4885	0.0009
746.6651	0.0263
746.8417	0.0168
747.0183	0.0377
747.1948	-0.0038
747.3714	0.0096
747.5479	0.0458
747.7244	-0.0165
747.9008	0.0259
748.0773	0.0331
748.2537	0.0113
748.4301	0.0179
748.6065	-0.0035
748.7829	-0.0199
748.9593	-0.012
749.1356	0.0179
749.3119	0.0222
749.4882	0.0135
749.6645	-0.0042
749.8408	0.0288
750.017	-0.003
750.1933	-0.013
750.3695	0.0037
750.5457	0.011
750.7218	-0.0078
750.898	-0.0238
751.0741	0.0016
751.2502	0.0063
751.4263	-0.0283
751.6024	-0.0045
751.7784	-0.009
751.9545	0.0019
752.1305	-0.0108
752.3065	-0.0053
752.4825	-0.0098
752.6584	0.004
752.8344	0.0071
753.0103	-0.0113
753.1862	0.0032
753.3621	0.002
753.5379	0.0007
753.7138	0.0096
753.8896	0.0202
754.0654	-0.0086
754.2412	0.0123
754.417	0.0224
754.5927	0.0206
754.7685	0.0132
754.9442	0.0193
755.1199	0.0148
755.2956	0.0027
755.4712	-0.0129
755.6469	0.0126
755.8225	0.0088
755.9981	0.0136
756.1736	0.0042
756.3492	-0.005
756.5248	0.031
756.7003	0.004
756.8758	-0.0151
757.0513	0.0051
757.2267	0.0162
757.4022	-0.0002
757.5776	0.0022
757.753	0.0186
757.9284	0.0037
758.1038	0.0172
758.2791	0.0095
758.4545	-0.008
758.6298	-0.0013
758.8051	0.002
758.9803	-0.0004
759.1556	-0.0034
759.3308	0.0048
759.506	-0.0035
759.6812	0.0024
759.8564	0.0023
760.0316	-0.0075
760.2067	0.0231
760.3819	0.0112
760.557	0.0013
760.732	-0.0031
760.9071	0.0192
761.0821	-0.0209
761.2572	0.0118
761.4322	0.0216
761.6072	-0.008
761.7821	-0.0276
761.9571	0.0389
762.132	0.0062
762.3069	0.0022
762.4818	0.0211
762.6567	0.0078
762.8316	0.029
763.0064	0.0146
763.1812	-0.0034
763.356	-0.0107
763.5308	0.0107
763.7055	-0.0052
763.8803	-0.0105
764.055	0.0018
764.2297	0.006
764.4044	0.0072
764.579	-0.0041
764.7537	-0.0138
764.9283	0.0178
765.1029	-0.0027
765.2775	0.01
765.4521	-0.0055
765.6266	0.0185
765.8011	0.0076
765.9756	0.0188
766.1501	-0.0024
766.3246	-0.0137
766.4991	0.035
766.6735	0.0119
766.8479	0.0001
767.0223	0.0001
767.1967	0.0145
767.371	0.0132
767.5454	0.0001
767.7197	0.0328
767.894	-0.0043
768.0683	0.0279
768.2425	0.0176
768.4168	-0.0026
768.591	-0.0027
768.7652	0.0111
768.9394	-0.0262
769.1135	0.0093
769.2877	-0.0037
769.4618	0.033
769.6359	0.0193
769.81	0.0219
769.984	0.0019
770.1581	0.0001
770.3321	0.0049
770.5061	0.0106
770.6801	0.0102
770.8541	0.0158
771.028	0.0365
771.202	0.0209
771.3759	0.0059
771.5498	0.0224
771.7236	0.0302
771.8975	0.0084
772.0713	-0.0027
772.2451	-0.0086
772.4189	0.019
772.5927	-0.0406
772.7665	0.0117
772.9402	0.0139
773.1139	0.004
773.2876	0.0186
773.4613	0.0191
773.635	0.0432
773.8086	0.034
773.9822	0.0299
774.1558	0.0243
774.3294	-0.0179
774.503	0.0036
774.6765	0.0084
774.8501	0.0154
775.0236	0.0709
775.1971	-0.0215
775.3705	-0.0083
775.544	-0.024
775.7174	-0.0015
775.8908	0.0337
776.0642	-0.0238
776.2376	0.0111
776.4109	0.0159
776.5843	0.0292
776.7576	0.0308
776.9309	0.0756
777.1041	-0.0249
777.2774	-0.0225
777.4506	0.0123
777.6238	-0.0319
777.797	-0.0096
777.9702	0.0188
778.1434	-0.0121
778.3165	-0.0227
778.4896	-0.0035
778.6627	0.0043
778.8358	0.027
779.0089	-0.0267
779.1819	0.0077
779.3549	0.035
779.5279	0.0106
779.7009	0.0665
779.8739	0.0357
780.0468	0.0159
780.2197	-0.0332
780.3926	-0.0259
780.5655	0.0231
780.7384	0.0053
780.9112	-0.0083
781.0841	-0.0018
781.2569	0.0426
781.4297	-0.0035
781.6024	0.0042
781.7752	0.0411
781.9479	0.0587
782.1206	-0.0057
782.2933	0.0087
782.466	0.0092
782.6386	-0.0022
782.8113	-0.0074
782.9839	0.003
783.1565	0.0297
783.329	0.0007
783.5016	-0.0221
783.6741	0.0062
783.8466	0.0488
784.0191	0.0098
784.1916	-0.0441
784.3641	-0.0502
784.5365	0.0408
784.7089	-0.0032
784.8813	0.0535
785.0537	0.0291
785.2261	-0.0166
785.3984	0.0015
785.5707	-0.0028
785.743	0.0706
785.9153	-0.0079
786.0876	-0.0286
786.2598	-0.0021
786.432	0.0122
786.6042	0.0274
786.7764	-0.0358
786.9486	-0.0235
787.1207	0.0409
787.2928	0.0404
787.4649	0.0021
787.637	0.009
787.8091	0.0126
787.9811	0.0158
788.1532	0.0309
788.3252	0.034
788.4972	-0.0032
788.6691	-0.0364
788.8411	-0.0193
789.013	0.0326
789.1849	-0.0307
789.3568	0.0431
789.5287	0.0245
789.7005	-0.0255
789.8723	-0.0146
790.0442	0.0164
790.2159	0.0022
790.3877	0.0192
790.5595	0.0139
790.7312	0.0206
790.9029	0.0653
791.0746	0.0531
791.2463	-0.0323
791.4179	0.0552
791.5896	0.0002
791.7612	0.027
791.9328	-0.0047
792.1044	-0.011
792.2759	-0.001
792.4474	0.0072
792.619	-0.0326
792.7905	0.0296
792.9619	0.0448
793.1334	0.0482
793.3048	0.0679
793.4762	0.0444
793.6476	-0.0326
793.819	0.0227
793.9904	0.0219
794.1617	-0.0205
794.333	0.0239
794.5043	0.0171
794.6756	0.016
794.8469	0.0201
795.0181	0.0168
795.1893	0.0173
795.3605	0.0444
795.5317	0.0098
795.7029	0.019
795.874	0.0261
796.0452	0.021
796.2163	0.0569
796.3873	0.0464
796.5584	0.046
796.7294	0.0474
796.9005	-0.0184
797.0715	0.0246
797.2425	0.0558
797.4134	0.1051
797.5844	0.0628
797.7553	-0.0654
797.9262	0.0556
798.0971	0.0626
798.2679	-0.0106
798.4388	-0.0043
798.6096	0.0328
798.7804	0.063
798.9512	-0.0345
799.122	0.0159
799.2927	0.0844
799.4635	-0.0606
799.6342	-0.0073
799.8049	0.0599
799.9755	-0.0188
800.1462	0.0477
800.3168	0.019
800.4874	-0.077
800.658	0.0564
800.8286	0.0209
800.9991	0.0449
801.1696	-0.0084
801.3402	-0.0435
801.5106	-0.0567
801.6811	0.0129
801.8516	0.1213
802.022	0.0481
802.1924	-0.018
802.3628	0.0082
802.5332	0.0427
802.7035	0.0613
802.8739	0.0243
803.0442	-0.0321
803.2145	0.0487
803.3847	-0.015
803.555	0.0396
803.7252	-0.0484
803.8954	-0.0508
804.0656	-0.0429
804.2358	0.017
804.4059	0.0689
804.5761	-0.0254
804.7462	-0.0265
804.9163	0.0228
805.0864	-0.0185
805.2564	0.0099
805.4264	-0.0159
805.5965	0.0838
805.7665	0.0351
805.9364	0.0145
806.1064	0.0205
806.2763	0.0407
806.4462	-0.0337
806.6161	0.0434
806.786	-0.0203
806.9559	-0.0123
807.1257	-0.0339
807.2955	-0.0043
807.4653	0.0247
807.6351	0.0776
807.8048	0.0002
807.9746	0.0351
808.1443	-0.0118
808.314	0.0205
808.4837	0.0646
808.6533	0.0066
808.8229	0.0086
808.9926	0.0431
809.1622	0.0085
809.3317	-0.0099
809.5013	-0.0481
809.6708	0.0207
809.8403	-0.0249
810.0098	-0.0102
810.1793	-0.0161
810.3488	-0.0657
810.5182	0.0318
810.6876	0.0201
810.857	-0.0105
811.0264	-0.0335
811.1958	0.032
811.3651	0.0296
811.5344	0.0986
811.7037	0.1297
811.873	0.081
812.0422	-0.0646
812.2115	-0.0439
812.3807	-0.1652
812.5499	-0.0532
812.7191	-0.1607
812.8882	-0.0795
813.0574	0.0137
813.2265	-0.0533
813.3956	0.0261
813.5646	-0.0152
813.7337	0.0093
813.9027	-0.0408
814.0718	-0.0026
814.2407	-0.0247
814.4097	0.0453
814.5787	0.1632
814.7476	0.0304
814.9165	0.0301
815.0854	0.0041
815.2543	0.1119
815.4232	0.1201
815.592	0.0865
815.7608	-0.0999
815.9296	-0.0133
816.0984	0.0816
816.2671	-0.1434
816.4359	0.0601
816.6046	-0.0203
816.7733	-0.045
816.942	-0.0973
817.1106	0.0167
817.2793	-0.0996
817.4479	0.0075
817.6165	0.0313
817.785	0.0283
817.9536	-0.0145
818.1221	0.0024
818.2906	-0.1315
818.4591	-0.044
818.6276	0.0442
818.7961	0.1084
818.9645	-0.0267
819.1329	0.1099
819.3013	-0.0058
819.4697	-0.2145
819.638	0.2259
819.8064	0.0834
819.9747	0.0346
820.143	-0.1404
820.3113	0.0297
820.4795	-0.0103
820.6477	0.0868
820.816	-0.0195
820.9842	0.1364
821.1523	0.0417
821.3205	-0.0233
821.4886	0.0301
821.6567	-0.0905
821.8248	0.121
821.9929	-0.0937
822.1609	-0.0061
822.329	0.0818
822.497	0.0129
822.665	-0.0276
822.833	0.0787
823.0009	-0.0029
823.1688	0.3172
823.3367	-0.1276
823.5046	0.156
823.6725	-0.0371
823.8404	-0.0271
824.0082	0.0411
824.176	0.0162
824.3438	0.2271
824.5116	-0.0274
824.6793	0.0257
824.847	-0.0105
825.0147	0.2836
825.1824	-0.0028
825.3501	0.1023
825.5177	-0.0298
825.6854	-0.1644
825.853	-0.0847
826.0206	-0.0902
826.1881	0.1214
826.3557	-0.0889
826.5232	0.1148
826.6907	0.0476
826.8582	-0.1085
827.0257	0.1909
827.1931	0.2868
827.3605	-0.0699
827.528	-0.0389
827.6953	-0.2478
827.8627	-0.158
828.03	0.0593
828.1974	-0.0223
828.3647	-0.0433
828.532	0.0479
828.6992	0.0483
828.8665	0.1619
829.0337	0.0441
829.2009	-0.1219
829.3681	-0.0058
829.5352	-0.219
829.7024	0.341
829.8695	0.024
830.0366	0.138
830.2037	0.1693
830.3707	0.1089
830.5378	0.0355
830.7048	-0.1237
830.8718	0.1674
831.0388	0.2739
831.2057	0.0426
831.3727	0.377
831.5396	-0.004
831.7065	-0.7047
831.8734	-0.0787
832.0402	0.2051
832.2071	-0.4469
832.3739	0.0019
832.5407	-1.2916
832.7075	0.9374
832.8742	0.4961
833.041	0.1384
833.2077	0.038
833.3744	0.2394
833.541	0.015
833.7077	-0.0052
833.8743	-0.0117
834.0409	0.0747
834.2075	0.1285
834.3741	-0.1421
834.5407	0.0142
834.7072	0.0471
834.8737	0.2315
835.0402	0.485
835.2067	0.0011
835.3731	-0.0688
835.5395	0.0313
835.706	-0.0183
835.8723	-0.0049
836.0387	0.1575
836.2051	0.0352
836.3714	0.1862
836.5377	-0.0295
836.704	0.1266
836.8703	-0.3131
837.0365	-0.542
837.2027	0.3152
837.3689	0.1734
837.5351	0.2725
837.7013	-0.1894
837.8674	-0.0685
838.0335	-0.0483
838.1997	-0.0316
838.3657	0.1533
838.5318	-0
838.6978	0.4279
838.8639	-0.1528
839.0299	0.2188
839.1958	0.1736
839.3618	-0.011
839.5277	0.2749
839.6937	-0.0187
839.8596	-0.1507
840.0254	0.1168
840.1913	-0.3759
840.3571	0.1026
840.523	-0
840.6888	-0.0978
840.8545	0.6303
841.0203	0.1526
841.186	0.1506
841.3517	-0.0429
841.5174	0.0225
841.6831	0.1039
841.8488	-0.1763
842.0144	0.1
842.18	0.2
842.3456	-0
842.5112	-0
842.6767	0.1867
842.8422	0.0548
843.0077	0.3982
843.1732	-0.5582
843.3387	-0.3468
843.5042	-0
843.6696	-0.3178
843.835	-0
844.0004	-0.0467
844.1657	-0
844.3311	-0
844.4964	-0.6394
844.6617	0.1686
844.827	0.5121
844.9923	0.0469
845.1575	-0
845.3227	-0.6173
845.4879	-0.3451
845.6531	0.3467
845.8183	0.2556
845.9834	-0.1403
846.1485	0.211
846.3136	-0.2665
846.4787	-0
846.6438	1.3617
846.8088	0.3511
846.9738	-0
847.1388	0.1194
847.3038	0.5013
847.4687	0.5719
847.6337	-0.0329
847.7986	-0.1717
847.9635	0.0127
848.1284	-0
848.2932	0.0255
848.458	-0
848.6228	-0.0939
848.7876	-0
848.9524	-0.6184
849.1172	-1.4993
849.2819	-0
849.4466	0.1437
849.6113	0.0815
849.7759	-0.2837
849.9406	-0.0366
850.1052	-1.2055
850.2698	-0
850.4344	-0.7677
850.599	-0.0736
850.7635	-0
850.928	0.3619
851.0925	0.2294
851.257	0.0022
851.4215	-0.2502
851.5859	-0.1196
851.7503	-0
851.9147	-0.2057
852.0791	-0.1183
852.2434	0.1123
852.4078	-0
852.5721	1.1439
852.7364	-0.2098
852.9007	-0.1935
853.0649	-0
853.2291	-0.2262
853.3934	-0
853.5575	-0.11
853.7217	-0
853.8859	-0.5819
854.05	-0.3721
854.2141	0.6811
854.3782	0.2491
854.5423	-0.238
854.7063	-0.154
854.8703	0.2495
855.0343	-0.0474
855.1983	-0.161
855.3623	-0.1413
855.5262	-0
855.6901	1.2097
855.854	0.0316
856.0179	1.0574
856.1818	0.0535
856.3456	-0
856.5094	-0.0841
856.6732	-0.5293
856.837	-1.137
857.0008	-0.5349
857.1645	-0
857.3282	-0.5472
857.4919	-0.0362
857.6556	-0.2235
857.8192	0.1004
857.9828	-0.1493
858.1465	0.4686
858.31	-0
858.4736	-0.6012
858.6372	0.0039
858.8007	-0
858.9642	0.2613
859.1277	1.2704
859.2911	-0.3804
859.4546	-0
859.618	1.1954
859.7814	0.4697
859.9448	-0
860.1081	-0
860.2715	-1.4221
860.4348	0.1566
860.5981	0.0161
860.7614	0.5302
860.9246	-0.2829
861.0879	0.1178
861.2511	-0
861.4143	-0.1461
861.5774	0.0401
861.7406	0.3164
861.9037	-0
862.0668	-1.0583
862.2299	-0.1396
862.393	-0
862.556	-0.1771
862.7191	-0.1769
862.8821	0.1535
863.0451	0.1873
863.208	-0.3833
863.371	-0.6031
863.5339	0.2202
863.6968	0.2776
863.8597	-0.4139
864.0225	-0
864.1854	0.5798
864.3482	-0
864.511	-0.1009
864.6737	-0.2065
864.8365	0.1714
864.9992	-0
865.1619	0.0047
865.3246	-1.7882
865.4873	0.0097
865.65	-0
865.8126	0.0444
865.9752	-0.1939
866.1378	0.1716
866.3004	-0.2796
866.4629	-1.8513
866.6254	0.9126
866.7879	0.7799
866.9504	-0
867.1129	-0.2742
867.2753	-0.334
867.4377	0.2972
867.6001	-0.6938
867.7625	0.1144
867.9249	-0
868.0872	0.4384
868.2495	0.54
868.4118	-0
868.5741	0.0634
868.7363	-0
868.8986	-0
869.0608	-0.4134
869.223	0.0755
869.3851	-0.3989
869.5473	-0.0396
869.7094	-0.0181
869.8715	-0.8508
870.0336	0.4322
870.1957	-0.0207
870.3577	-0
870.5197	-0.0093
870.6817	-0.8665
870.8437	-0.0629
871.0057	-0
871.1676	0.2197
871.3295	0.0755
871.4914	-0
871.6533	-0.1642
871.8151	0.1431
871.977	-0
872.1388	-0.2812
872.3006	-0
872.4623	-0.901
872.6241	-0
872.7858	-0.1211
872.9475	-0.0025
873.1092	-0.1006
873.2709	0.4418
873.4325	-1.9191
873.5941	-0.6742
873.7557	-0
873.9173	0.3122
874.0789	-0.0799
874.2404	-0.1515
874.4019	-0.0888
874.5634	-0
874.7249	-0.0782
874.8863	-0.1836
875.0478	-0.2823
875.2092	0.5567
875.3706	-0
875.5319	0.0571
875.6933	0.3578
875.8546	-0.0771
876.0159	-0.0761
876.1772	-0.1461
876.3385	-0
876.4997	-0
876.6609	0.2786
876.8221	0.9288
876.9833	0.2176
877.1445	0.4162
877.3056	-0
877.4667	-0.5994
877.6278	1.9063
877.7889	-0
877.9499	0.9794
878.111	-0.3047
878.272	-0
878.433	-0.1887
878.5939	-0.205
878.7549	-0.3557
878.9158	-0
879.0767	-0
879.2376	-0.5669
879.3984	0.3982
879.5593	0.5262
879.7201	-1.7449
879.8809	-0.3534
880.0417	-0.2455
880.2024	0.2089
880.3632	-0.1515
880.5239	-0
880.6846	-0
880.8452	0.3601
881.0059	-0
881.1665	-0.0887
881.3271	-0
881.4877	0.0015
881.6483	-0.2609
881.8088	-0.8094
881.9693	-0
882.1298	-0
882.2903	-0
