Data from D4ACN5uM440nmA_Absorbance_13-50-26-677.txt Node
Date: Fri Feb 21 13:50:26 GMT 2025
User: LASERRRRR
Spectrometer: FLMT03099
Trigger mode: 0
Integration Time (sec): 1.500000E-2
Scans to average: 1
Electric dark correction enabled: true
Nonlinearity correction enabled: false
Boxcar width: 0
XAxis mode: Wavelengths
Number of Pixels in Spectrum: 3648
>>>>>Begin Spectral Data<<<<<
179.3399	-0.4819
179.5586	-0.4819
179.7771	-0.4819
179.9957	-0.0708
180.2143	-1.348
180.4329	0.0956
180.6514	-0.5878
180.8699	0.2077
181.0885	0.4145
181.307	0.3198
181.5255	0.5901
181.744	-0
181.9625	0.3457
182.181	0.4008
182.3994	-0
182.6179	0.4968
182.8363	0.857
183.0547	1.1069
183.2732	0.3447
183.4916	0.0115
183.71	0.4069
183.9284	0.1287
184.1467	0.2656
184.3651	0.0025
184.5835	0.2484
184.8018	0.0586
185.0201	0.3624
185.2385	0.4465
185.4568	0.1004
185.6751	0.0605
185.8934	0.2488
186.1117	0.2552
186.3299	0.3119
186.5482	0.2843
186.7664	0.1892
186.9847	-0.0541
187.2029	0.2117
187.4211	0.1856
187.6393	0.1184
187.8575	0.1424
188.0757	0.3875
188.2939	0.117
188.512	0.1942
188.7302	0.1886
188.9483	0.1876
189.1665	0.5922
189.3846	0.1454
189.6027	0.1365
189.8208	0.1541
190.0389	0.1777
190.257	0.0715
190.475	0.083
190.6931	0.1399
190.9111	0.0153
191.1292	0.1872
191.3472	0.1556
191.5652	0.1535
191.7832	0.3518
192.0012	0.1685
192.2192	0.3574
192.4371	0.1791
192.6551	0.1693
192.873	0.2349
193.091	0.0917
193.3089	0.2116
193.5268	0.265
193.7447	0.1926
193.9626	0.1704
194.1805	0.4664
194.3984	0.3377
194.6162	0.209
194.8341	0.4312
195.0519	0.2019
195.2697	0.3163
195.4875	0.3271
195.7054	0.2335
195.9231	0.2401
196.1409	0.3474
196.3587	0.2991
196.5765	0.3451
196.7942	0.3023
197.012	0.3021
197.2297	0.3217
197.4474	0.4639
197.6651	0.4068
197.8828	0.3781
198.1005	0.486
198.3182	0.3823
198.5358	0.3814
198.7535	0.3552
198.9711	0.4132
199.1888	0.3952
199.4064	0.4285
199.624	0.3907
199.8416	0.3579
200.0592	0.4005
200.2767	0.4231
200.4943	0.4502
200.7119	0.4102
200.9294	0.4294
201.1469	0.4541
201.3645	0.4367
201.582	0.4007
201.7995	0.4583
202.017	0.422
202.2344	0.3831
202.4519	0.3744
202.6694	0.4391
202.8868	0.3945
203.1042	0.377
203.3217	0.3827
203.5391	0.4155
203.7565	0.3735
203.9739	0.3958
204.1913	0.3444
204.4086	0.3334
204.626	0.3847
204.8433	0.3744
205.0607	0.3421
205.278	0.3622
205.4953	0.3155
205.7126	0.3448
205.9299	0.326
206.1472	0.3371
206.3644	0.3425
206.5817	0.3213
206.7989	0.3477
207.0162	0.3135
207.2334	0.3334
207.4506	0.3207
207.6678	0.3103
207.885	0.3032
208.1022	0.2824
208.3194	0.3071
208.5365	0.3141
208.7537	0.2956
208.9708	0.3017
209.1879	0.2917
209.405	0.2822
209.6222	0.2565
209.8392	0.2895
210.0563	0.2967
210.2734	0.2585
210.4905	0.275
210.7075	0.2779
210.9245	0.2755
211.1416	0.2645
211.3586	0.2707
211.5756	0.2478
211.7926	0.2792
212.0096	0.2769
212.2265	0.2729
212.4435	0.2458
212.6604	0.2477
212.8774	0.245
213.0943	0.2521
213.3112	0.2449
213.5281	0.247
213.745	0.2263
213.9619	0.2536
214.1788	0.2537
214.3956	0.2422
214.6125	0.2467
214.8293	0.2497
215.0461	0.2397
215.2629	0.2439
215.4798	0.2584
215.6965	0.2432
215.9133	0.2482
216.1301	0.2607
216.3469	0.2442
216.5636	0.2444
216.7803	0.236
216.9971	0.2634
217.2138	0.2445
217.4305	0.2605
217.6472	0.2478
217.8639	0.2477
218.0805	0.2441
218.2972	0.2588
218.5138	0.2599
218.7305	0.2518
218.9471	0.2519
219.1637	0.2617
219.3803	0.2612
219.5969	0.2599
219.8135	0.2606
220.0301	0.2494
220.2466	0.2542
220.4632	0.2517
220.6797	0.2579
220.8962	0.2568
221.1127	0.2579
221.3292	0.2681
221.5457	0.2614
221.7622	0.2863
221.9787	0.2772
222.1951	0.261
222.4116	0.2662
222.628	0.2857
222.8444	0.2735
223.0608	0.2744
223.2772	0.2844
223.4936	0.2726
223.71	0.2964
223.9264	0.265
224.1427	0.2887
224.3591	0.2816
224.5754	0.288
224.7917	0.2843
225.008	0.2795
225.2243	0.3069
225.4406	0.2932
225.6569	0.3051
225.8732	0.306
226.0894	0.3094
226.3057	0.2936
226.5219	0.3115
226.7381	0.3248
226.9543	0.3241
227.1705	0.3184
227.3867	0.3169
227.6029	0.3162
227.8191	0.3346
228.0352	0.3479
228.2513	0.3514
228.4675	0.342
228.6836	0.3406
228.8997	0.3342
229.1158	0.3541
229.3319	0.3598
229.548	0.3537
229.764	0.3583
229.9801	0.3772
230.1961	0.3615
230.4121	0.3683
230.6282	0.3999
230.8442	0.3913
231.0602	0.3885
231.2761	0.3982
231.4921	0.3976
231.7081	0.3972
231.924	0.4013
232.14	0.4079
232.3559	0.4052
232.5718	0.4185
232.7877	0.4109
233.0036	0.4068
233.2195	0.4088
233.4353	0.4117
233.6512	0.4151
233.867	0.4161
234.0829	0.4211
234.2987	0.4129
234.5145	0.4336
234.7303	0.4325
234.9461	0.441
235.1619	0.4414
235.3776	0.4347
235.5934	0.4502
235.8091	0.4469
236.0249	0.4473
236.2406	0.4427
236.4563	0.4452
236.672	0.4394
236.8877	0.4455
237.1034	0.446
237.319	0.4606
237.5347	0.4477
237.7503	0.4469
237.966	0.4636
238.1816	0.4569
238.3972	0.451
238.6128	0.4533
238.8284	0.4624
239.0439	0.4564
239.2595	0.4628
239.475	0.4605
239.6906	0.4637
239.9061	0.454
240.1216	0.4574
240.3371	0.4641
240.5526	0.4554
240.7681	0.4584
240.9836	0.4619
241.199	0.4567
241.4145	0.4412
241.6299	0.4469
241.8453	0.4381
242.0607	0.4436
242.2761	0.4321
242.4915	0.4273
242.7069	0.4196
242.9223	0.4284
243.1376	0.4238
243.353	0.4169
243.5683	0.3971
243.7836	0.4005
243.9989	0.3808
244.2142	0.3835
244.4295	0.3782
244.6448	0.3681
244.86	0.3595
245.0753	0.3583
245.2905	0.3447
245.5057	0.3457
245.721	0.3351
245.9362	0.3359
246.1514	0.3293
246.3665	0.3186
246.5817	0.3049
246.7969	0.2972
247.012	0.2973
247.2271	0.2941
247.4423	0.295
247.6574	0.2848
247.8725	0.2707
248.0876	0.2755
248.3026	0.2739
248.5177	0.2643
248.7328	0.2554
248.9478	0.2511
249.1628	0.2519
249.3779	0.2429
249.5929	0.2421
249.8079	0.2301
250.0228	0.2328
250.2378	0.2273
250.4528	0.2275
250.6677	0.2245
250.8827	0.2142
251.0976	0.2151
251.3125	0.2181
251.5274	0.2135
251.7423	0.2113
251.9572	0.2047
252.172	0.2053
252.3869	0.2048
252.6017	0.2033
252.8166	0.2028
253.0314	0.1902
253.2462	0.1982
253.461	0.1977
253.6758	0.1933
253.8906	0.1969
254.1053	0.1997
254.3201	0.1902
254.5348	0.185
254.7496	0.1845
254.9643	0.1873
255.179	0.1878
255.3937	0.1844
255.6083	0.1912
255.823	0.1861
256.0377	0.1833
256.2523	0.1864
256.467	0.1801
256.6816	0.1791
256.8962	0.1841
257.1108	0.1892
257.3254	0.1815
257.54	0.18
257.7545	0.1844
257.9691	0.1789
258.1836	0.172
258.3981	0.1824
258.6127	0.1721
258.8272	0.1789
259.0417	0.1706
259.2561	0.1742
259.4706	0.1759
259.6851	0.1749
259.8995	0.1786
260.114	0.1776
260.3284	0.175
260.5428	0.178
260.7572	0.177
260.9716	0.1868
261.186	0.1795
261.4003	0.1753
261.6147	0.1791
261.829	0.1801
262.0433	0.1799
262.2577	0.1804
262.472	0.178
262.6863	0.18
262.9005	0.1808
263.1148	0.1822
263.3291	0.1839
263.5433	0.1803
263.7576	0.1823
263.9718	0.178
264.186	0.1845
264.4002	0.1824
264.6144	0.1868
264.8286	0.1881
265.0427	0.1919
265.2569	0.1878
265.471	0.189
265.6851	0.1898
265.8993	0.1847
266.1134	0.1849
266.3275	0.1898
266.5415	0.1901
266.7556	0.1841
266.9697	0.1958
267.1837	0.1863
267.3978	0.1936
267.6118	0.1818
267.8258	0.1873
268.0398	0.1888
268.2538	0.1879
268.4677	0.1873
268.6817	0.1831
268.8957	0.1819
269.1096	0.1767
269.3235	0.187
269.5374	0.1885
269.7514	0.1891
269.9652	0.1794
270.1791	0.1817
270.393	0.1838
270.6068	0.1842
270.8207	0.182
271.0345	0.1732
271.2483	0.1774
271.4622	0.1848
271.676	0.1801
271.8897	0.1795
272.1035	0.1866
272.3173	0.1822
272.531	0.1847
272.7448	0.1798
272.9585	0.1803
273.1722	0.182
273.3859	0.1815
273.5996	0.1855
273.8133	0.1853
274.0269	0.182
274.2406	0.1861
274.4542	0.1843
274.6679	0.1889
274.8815	0.1878
275.0951	0.1953
275.3087	0.1893
275.5223	0.1859
275.7358	0.1944
275.9494	0.1899
276.1629	0.1959
276.3765	0.1898
276.59	0.1902
276.8035	0.1833
277.017	0.1979
277.2305	0.1924
277.444	0.1949
277.6574	0.1945
277.8709	0.2001
278.0843	0.1989
278.2978	0.1937
278.5112	0.1981
278.7246	0.1943
278.938	0.1922
279.1513	0.1946
279.3647	0.1929
279.5781	0.194
279.7914	0.1905
280.0047	0.1933
280.2181	0.1904
280.4314	0.1908
280.6447	0.2016
280.8579	0.1855
281.0712	0.1878
281.2845	0.1877
281.4977	0.1915
281.711	0.1917
281.9242	0.1917
282.1374	0.1923
282.3506	0.191
282.5638	0.1905
282.7769	0.1837
282.9901	0.1856
283.2033	0.1805
283.4164	0.1908
283.6295	0.1789
283.8426	0.1808
284.0557	0.1893
284.2688	0.184
284.4819	0.187
284.695	0.1921
284.908	0.182
285.1211	0.189
285.3341	0.1807
285.5471	0.1872
285.7601	0.1877
285.9731	0.1885
286.1861	0.1908
286.3991	0.1889
286.612	0.1853
286.825	0.1891
287.0379	0.1839
287.2508	0.183
287.4637	0.1868
287.6766	0.1857
287.8895	0.1856
288.1024	0.1889
288.3152	0.1865
288.5281	0.1804
288.7409	0.1894
288.9538	0.1864
289.1666	0.1836
289.3794	0.1886
289.5922	0.1808
289.8049	0.1894
290.0177	0.1912
290.2304	0.1864
290.4432	0.1869
290.6559	0.1886
290.8686	0.1875
291.0813	0.1911
291.294	0.1858
291.5067	0.1834
291.7194	0.18
291.932	0.1843
292.1447	0.1853
292.3573	0.1882
292.5699	0.1884
292.7825	0.1828
292.9951	0.1855
293.2077	0.1833
293.4203	0.1886
293.6328	0.1858
293.8454	0.1895
294.0579	0.1856
294.2704	0.1933
294.4829	0.1798
294.6954	0.189
294.9079	0.18
295.1204	0.1842
295.3328	0.1913
295.5453	0.1896
295.7577	0.183
295.9701	0.1844
296.1825	0.1852
296.3949	0.1862
296.6073	0.179
296.8197	0.1831
297.0321	0.189
297.2444	0.1826
297.4567	0.1856
297.6691	0.187
297.8814	0.1836
298.0937	0.1843
298.306	0.187
298.5182	0.188
298.7305	0.191
298.9428	0.1826
299.155	0.1792
299.3672	0.1885
299.5794	0.1869
299.7916	0.1869
300.0038	0.1876
300.216	0.1797
300.4282	0.1901
300.6403	0.1881
300.8525	0.1832
301.0646	0.1865
301.2767	0.1895
301.4888	0.1886
301.7009	0.1876
301.913	0.1868
302.125	0.1868
302.3371	0.1848
302.5491	0.1926
302.7612	0.1927
302.9732	0.1947
303.1852	0.1924
303.3972	0.1903
303.6092	0.1872
303.8211	0.1827
304.0331	0.1899
304.245	0.1862
304.457	0.1814
304.6689	0.1823
304.8808	0.1787
305.0927	0.1857
305.3046	0.1783
305.5164	0.1813
305.7283	0.1825
305.9401	0.1708
306.152	0.1768
306.3638	0.1767
306.5756	0.1772
306.7874	0.174
306.9992	0.1655
307.2109	0.1676
307.4227	0.1708
307.6344	0.1723
307.8462	0.1677
308.0579	0.1705
308.2696	0.1666
308.4813	0.1605
308.693	0.1658
308.9046	0.1625
309.1163	0.1558
309.328	0.1574
309.5396	0.1534
309.7512	0.1591
309.9628	0.1527
310.1744	0.1504
310.386	0.1496
310.5976	0.1551
310.8091	0.1528
311.0207	0.1514
311.2322	0.1466
311.4437	0.1484
311.6552	0.1485
311.8667	0.1535
312.0782	0.1484
312.2897	0.1456
312.5012	0.1453
312.7126	0.135
312.924	0.1411
313.1355	0.139
313.3469	0.1365
313.5583	0.1426
313.7696	0.1378
313.981	0.1452
314.1924	0.1371
314.4037	0.1367
314.6151	0.1385
314.8264	0.1392
315.0377	0.1405
315.249	0.1392
315.4603	0.135
315.6716	0.1376
315.8828	0.1331
316.0941	0.1351
316.3053	0.1335
316.5165	0.1375
316.7277	0.1342
316.9389	0.1372
317.1501	0.1344
317.3613	0.1333
317.5724	0.1298
317.7836	0.1261
317.9947	0.1276
318.2058	0.1287
318.417	0.1304
318.6281	0.129
318.8391	0.1336
319.0502	0.1248
319.2613	0.1325
319.4723	0.1315
319.6834	0.1279
319.8944	0.1306
320.1054	0.1296
320.3164	0.1262
320.5274	0.125
320.7383	0.1352
320.9493	0.1351
321.1602	0.1256
321.3712	0.1294
321.5821	0.1261
321.793	0.1342
322.0039	0.1295
322.2148	0.1357
322.4257	0.1289
322.6365	0.1295
322.8474	0.1392
323.0582	0.1308
323.269	0.1294
323.4798	0.132
323.6906	0.1316
323.9014	0.1267
324.1122	0.1285
324.3229	0.136
324.5337	0.1322
324.7444	0.1355
324.9551	0.1313
325.1658	0.1324
325.3765	0.1329
325.5872	0.1316
325.7979	0.1334
326.0085	0.136
326.2192	0.1321
326.4298	0.1468
326.6404	0.1374
326.851	0.139
327.0616	0.1404
327.2722	0.1412
327.4828	0.14
327.6933	0.149
327.9039	0.1403
328.1144	0.1354
328.3249	0.1384
328.5354	0.1453
328.7459	0.1429
328.9564	0.1369
329.1669	0.1448
329.3773	0.1368
329.5878	0.1365
329.7982	0.1434
330.0086	0.1399
330.219	0.146
330.4294	0.1432
330.6398	0.1504
330.8502	0.1482
331.0605	0.1481
331.2708	0.1369
331.4812	0.1528
331.6915	0.147
331.9018	0.1478
332.1121	0.1499
332.3224	0.1484
332.5326	0.1482
332.7429	0.1469
332.9531	0.1515
333.1633	0.1431
333.3735	0.1442
333.5837	0.1432
333.7939	0.1409
334.0041	0.152
334.2143	0.1438
334.4244	0.1523
334.6346	0.1425
334.8447	0.1408
335.0548	0.1521
335.2649	0.1463
335.475	0.1515
335.685	0.1486
335.8951	0.1448
336.1051	0.1444
336.3152	0.1502
336.5252	0.1442
336.7352	0.1437
336.9452	0.1525
337.1552	0.1468
337.3652	0.1474
337.5751	0.1486
337.7851	0.1438
337.995	0.1454
338.2049	0.1522
338.4148	0.1482
338.6247	0.146
338.8346	0.1426
339.0445	0.1507
339.2543	0.1498
339.4642	0.1443
339.674	0.1432
339.8838	0.1495
340.0936	0.1484
340.3034	0.1497
340.5132	0.1428
340.7229	0.1546
340.9327	0.1594
341.1424	0.1468
341.3522	0.1412
341.5619	0.1535
341.7716	0.162
341.9813	0.1591
342.1909	0.1511
342.4006	0.1564
342.6102	0.1543
342.8199	0.1512
343.0295	0.1507
343.2391	0.1546
343.4487	0.157
343.6583	0.17
343.8679	0.1578
344.0774	0.1616
344.287	0.1549
344.4965	0.1644
344.706	0.1685
344.9155	0.1582
345.125	0.1617
345.3345	0.1732
345.544	0.1665
345.7534	0.1731
345.9629	0.1683
346.1723	0.1698
346.3817	0.1674
346.5911	0.1721
346.8005	0.1782
347.0099	0.1709
347.2193	0.1725
347.4286	0.1811
347.638	0.1685
347.8473	0.1753
348.0566	0.1734
348.2659	0.1776
348.4752	0.1762
348.6845	0.179
348.8937	0.1772
349.103	0.1797
349.3122	0.1765
349.5214	0.1863
349.7306	0.1762
349.9398	0.1804
350.149	0.1759
350.3582	0.1836
350.5674	0.1826
350.7765	0.1804
350.9856	0.1792
351.1948	0.1795
351.4039	0.1858
351.613	0.1721
351.822	0.1896
352.0311	0.1839
352.2402	0.1884
352.4492	0.1799
352.6582	0.1863
352.8672	0.1844
353.0762	0.1777
353.2852	0.1833
353.4942	0.1929
353.7032	0.1828
353.9121	0.1806
354.1211	0.1843
354.33	0.1825
354.5389	0.188
354.7478	0.1802
354.9567	0.1857
355.1655	0.1837
355.3744	0.1819
355.5833	0.1796
355.7921	0.1857
356.0009	0.1837
356.2097	0.18
356.4185	0.1855
356.6273	0.184
356.8361	0.1821
357.0448	0.1929
357.2536	0.1856
357.4623	0.1898
357.671	0.1917
357.8797	0.1902
358.0884	0.1821
358.2971	0.1887
358.5057	0.1915
358.7144	0.1891
358.923	0.1932
359.1316	0.1885
359.3402	0.1894
359.5488	0.1873
359.7574	0.204
359.966	0.1953
360.1746	0.1911
360.3831	0.2038
360.5916	0.1952
360.8002	0.2062
361.0087	0.1979
361.2172	0.1988
361.4256	0.1991
361.6341	0.2017
361.8426	0.2016
362.051	0.2061
362.2594	0.2039
362.4678	0.1974
362.6762	0.2117
362.8846	0.2018
363.093	0.2032
363.3014	0.2186
363.5097	0.1951
363.718	0.208
363.9264	0.2112
364.1347	0.203
364.343	0.2107
364.5513	0.2127
364.7595	0.2214
364.9678	0.2091
365.176	0.2192
365.3842	0.2163
365.5925	0.2113
365.8007	0.2119
366.0089	0.2204
366.217	0.2194
366.4252	0.2239
366.6333	0.222
366.8415	0.2137
367.0496	0.2192
367.2577	0.2273
367.4658	0.2183
367.6739	0.2196
367.882	0.223
368.09	0.2188
368.2981	0.2266
368.5061	0.2253
368.7141	0.2273
368.9221	0.2349
369.1301	0.2327
369.3381	0.2341
369.5461	0.228
369.754	0.2304
369.962	0.2329
370.1699	0.2432
370.3778	0.2475
370.5857	0.2367
370.7936	0.2309
371.0015	0.2294
371.2093	0.2345
371.4172	0.2277
371.625	0.2333
371.8328	0.2321
372.0406	0.2427
372.2484	0.2417
372.4562	0.2387
372.664	0.2484
372.8717	0.2444
373.0795	0.2403
373.2872	0.2438
373.4949	0.2445
373.7026	0.2378
373.9103	0.2374
374.118	0.2487
374.3256	0.2499
374.5333	0.243
374.7409	0.2462
374.9485	0.241
375.1561	0.2489
375.3637	0.2424
375.5713	0.2523
375.7789	0.2492
375.9864	0.2578
376.194	0.2586
376.4015	0.2589
376.609	0.2534
376.8165	0.2657
377.024	0.2573
377.2315	0.254
377.4389	0.246
377.6464	0.2576
377.8538	0.2575
378.0612	0.2583
378.2686	0.2555
378.476	0.2655
378.6834	0.258
378.8908	0.2649
379.0981	0.2656
379.3055	0.2598
379.5128	0.2632
379.7201	0.2621
379.9274	0.2651
380.1347	0.2599
380.342	0.2666
380.5492	0.2617
380.7565	0.2685
380.9637	0.2578
381.1709	0.2662
381.3781	0.2657
381.5853	0.2634
381.7925	0.2595
381.9997	0.2697
382.2068	0.2673
382.4139	0.27
382.6211	0.2705
382.8282	0.2689
383.0353	0.2775
383.2424	0.2726
383.4494	0.2777
383.6565	0.2741
383.8635	0.2661
384.0706	0.2741
384.2776	0.2735
384.4846	0.2788
384.6916	0.2784
384.8986	0.2716
385.1055	0.2847
385.3125	0.2674
385.5194	0.2797
385.7263	0.2777
385.9333	0.2771
386.1402	0.2816
386.347	0.2736
386.5539	0.2714
386.7608	0.2699
386.9676	0.2785
387.1744	0.2744
387.3813	0.2783
387.5881	0.2656
387.7948	0.2794
388.0016	0.283
388.2084	0.275
388.4151	0.2722
388.6219	0.2669
388.8286	0.2761
389.0353	0.2789
389.242	0.272
389.4487	0.2691
389.6553	0.2657
389.862	0.2649
390.0686	0.274
390.2753	0.2613
390.4819	0.2725
390.6885	0.262
390.8951	0.2624
391.1016	0.2587
391.3082	0.2595
391.5147	0.2554
391.7213	0.2617
391.9278	0.26
392.1343	0.2581
392.3408	0.2643
392.5473	0.2621
392.7537	0.2506
392.9602	0.2508
393.1666	0.2606
393.373	0.255
393.5794	0.2473
393.7858	0.2514
393.9922	0.2445
394.1986	0.2502
394.4049	0.251
394.6113	0.246
394.8176	0.2458
395.0239	0.2392
395.2302	0.2484
395.4365	0.2423
395.6428	0.2552
395.8491	0.2468
396.0553	0.2404
396.2615	0.2424
396.4678	0.247
396.674	0.2363
396.8802	0.2411
397.0863	0.2413
397.2925	0.2409
397.4987	0.2394
397.7048	0.2292
397.9109	0.2342
398.117	0.2338
398.3231	0.2327
398.5292	0.2206
398.7353	0.2238
398.9413	0.2357
399.1474	0.2327
399.3534	0.2409
399.5594	0.2379
399.7654	0.2332
399.9714	0.2356
400.1774	0.2271
400.3833	0.2356
400.5893	0.231
400.7952	0.2354
401.0011	0.2351
401.207	0.2323
401.4129	0.2275
401.6188	0.2324
401.8247	0.234
402.0305	0.2256
402.2364	0.2372
402.4422	0.2291
402.648	0.231
402.8538	0.2233
403.0596	0.2258
403.2654	0.2249
403.4711	0.2321
403.6768	0.2214
403.8826	0.2348
404.0883	0.2312
404.294	0.2355
404.4997	0.2277
404.7054	0.2275
404.911	0.2249
405.1167	0.2338
405.3223	0.2282
405.5279	0.2298
405.7335	0.2274
405.9391	0.2275
406.1447	0.2304
406.3502	0.2314
406.5558	0.2268
406.7613	0.2242
406.9668	0.2288
407.1724	0.2261
407.3778	0.2311
407.5833	0.2243
407.7888	0.234
407.9942	0.2322
408.1997	0.2295
408.4051	0.2339
408.6105	0.2337
408.8159	0.2312
409.0213	0.2373
409.2267	0.237
409.432	0.2348
409.6374	0.2312
409.8427	0.2355
410.048	0.2232
410.2533	0.2333
410.4586	0.2229
410.6639	0.2303
410.8691	0.219
411.0744	0.2318
411.2796	0.2237
411.4848	0.2262
411.69	0.2292
411.8952	0.2306
412.1004	0.2239
412.3056	0.2293
412.5107	0.237
412.7158	0.2392
412.921	0.2242
413.1261	0.2251
413.3312	0.2309
413.5362	0.2323
413.7413	0.2265
413.9464	0.2201
414.1514	0.2269
414.3564	0.2221
414.5614	0.224
414.7664	0.2157
414.9714	0.2212
415.1764	0.229
415.3813	0.2218
415.5863	0.2351
415.7912	0.2184
415.9961	0.2288
416.201	0.2357
416.4059	0.2236
416.6108	0.2223
416.8156	0.2172
417.0205	0.2166
417.2253	0.2202
417.4301	0.237
417.6349	0.2244
417.8397	0.2186
418.0445	0.2204
418.2492	0.2191
418.454	0.2239
418.6587	0.2202
418.8634	0.2267
419.0681	0.2263
419.2728	0.2176
419.4775	0.2228
419.6822	0.2181
419.8868	0.2213
420.0915	0.2169
420.2961	0.2187
420.5007	0.2127
420.7053	0.2113
420.9099	0.2179
421.1144	0.2133
421.319	0.2038
421.5235	0.2028
421.728	0.2208
421.9325	0.2125
422.137	0.1994
422.3415	0.2028
422.546	0.2052
422.7504	0.2001
422.9549	0.2061
423.1593	0.2046
423.3637	0.2079
423.5681	0.2144
423.7725	0.1992
423.9769	0.209
424.1812	0.1947
424.3856	0.1957
424.5899	0.2051
424.7942	0.1984
424.9985	0.1995
425.2028	0.2038
425.4071	0.2039
425.6113	0.1917
425.8156	0.1896
426.0198	0.1913
426.224	0.2005
426.4282	0.1859
426.6324	0.189
426.8366	0.1898
427.0407	0.191
427.2449	0.1977
427.449	0.192
427.6531	0.1909
427.8572	0.188
428.0613	0.1909
428.2654	0.182
428.4694	0.1717
428.6735	0.1815
428.8775	0.1724
429.0815	0.1727
429.2855	0.1772
429.4895	0.1769
429.6935	0.1686
429.8975	0.1675
430.1014	0.1733
430.3053	0.1747
430.5093	0.1717
430.7132	0.1695
430.9171	0.1688
431.1209	0.1636
431.3248	0.157
431.5286	0.1515
431.7325	0.162
431.9363	0.1554
432.1401	0.1525
432.3439	0.1588
432.5477	0.1503
432.7514	0.1518
432.9552	0.1528
433.1589	0.1422
433.3627	0.1514
433.5664	0.1444
433.7701	0.1535
433.9737	0.149
434.1774	0.144
434.3811	0.1352
434.5847	0.1348
434.7883	0.15
434.9919	0.1267
435.1955	0.1372
435.3991	0.1474
435.6027	0.1303
435.8062	0.1395
436.0098	0.1275
436.2133	0.1288
436.4168	0.1251
436.6203	0.1125
436.8238	0.1216
437.0272	0.1335
437.2307	0.1213
437.4341	0.1175
437.6375	0.11
437.841	0.1118
438.0443	0.1202
438.2477	0.1091
438.4511	0.1041
438.6545	0.1076
438.8578	0.1113
439.0611	0.1169
439.2644	0.1091
439.4677	0.1016
439.671	0.1001
439.8743	0.1016
440.0775	0.104
440.2808	0.0968
440.484	0.098
440.6872	0.1011
440.8904	0.0857
441.0936	0.091
441.2967	0.0888
441.4999	0.0875
441.703	0.0886
441.9062	0.0911
442.1093	0.0929
442.3124	0.0856
442.5155	0.0876
442.7185	0.0759
442.9216	0.078
443.1246	0.0857
443.3276	0.0805
443.5307	0.0722
443.7337	0.0768
443.9366	0.0721
444.1396	0.0723
444.3426	0.0674
444.5455	0.0721
444.7484	0.0698
444.9513	0.0691
445.1542	0.0762
445.3571	0.0775
445.56	0.0625
445.7628	0.0606
445.9657	0.0631
446.1685	0.0667
446.3713	0.0739
446.5741	0.0681
446.7769	0.0608
446.9797	0.0584
447.1824	0.0569
447.3852	0.0489
447.5879	0.058
447.7906	0.0532
447.9933	0.0579
448.196	0.0513
448.3986	0.0434
448.6013	0.047
448.8039	0.054
449.0066	0.0504
449.2092	0.0555
449.4118	0.0469
449.6143	0.0474
449.8169	0.0476
450.0195	0.0408
450.222	0.0482
450.4245	0.053
450.627	0.039
450.8295	0.0381
451.032	0.0501
451.2345	0.0398
451.4369	0.0514
451.6394	0.0322
451.8418	0.047
452.0442	0.0438
452.2466	0.0338
452.449	0.0368
452.6513	0.0328
452.8537	0.0237
453.056	0.0311
453.2583	0.0381
453.4607	0.0297
453.663	0.0321
453.8652	0.0233
454.0675	0.0319
454.2697	0.0384
454.472	0.0222
454.6742	0.0314
454.8764	0.0324
455.0786	0.0281
455.2808	0.0276
455.4829	0.0343
455.6851	0.0308
455.8872	0.0197
456.0893	0.0187
456.2915	0.0181
456.4935	0.0316
456.6956	0.0306
456.8977	0.0264
457.0997	0.0326
457.3018	0.0186
457.5038	0.0249
457.7058	0.0213
457.9078	0.022
458.1098	0.0274
458.3117	0.0213
458.5137	0.0092
458.7156	0.0275
458.9175	0.0239
459.1194	0.0158
459.3213	0.0179
459.5232	0.031
459.725	0.0195
459.9269	0.0213
460.1287	0.0137
460.3305	0.0271
460.5323	0.021
460.7341	0.0153
460.9359	0.009
461.1376	0.0185
461.3394	0.0188
461.5411	0.0198
461.7428	0.0189
461.9445	0.013
462.1462	0.0156
462.3479	0.0119
462.5495	0.0199
462.7512	0.0277
462.9528	0.02
463.1544	0.0137
463.356	0.0129
463.5576	0.0135
463.7592	0.0074
463.9607	0.014
464.1623	0.0168
464.3638	0.0115
464.5653	0.0158
464.7668	0.0181
464.9683	0.0089
465.1697	0.0177
465.3712	0.012
465.5726	0.015
465.7741	0.0162
465.9755	0.0133
466.1769	0.0074
466.3782	0.011
466.5796	0.016
466.7809	0.0111
466.9823	0.0086
467.1836	0.0168
467.3849	0.0017
467.5862	-0.0015
467.7875	0.0142
467.9887	0.014
468.19	0.0115
468.3912	0.0168
468.5924	-0.0018
468.7936	0.0208
468.9948	0.0119
469.196	0.0109
469.3972	-0
469.5983	0.0008
469.7994	0.0209
470.0006	0.0116
470.2017	0.0131
470.4027	0.0208
470.6038	0.0219
470.8049	0.0148
471.0059	0.0175
471.2069	0.0069
471.408	0.0263
471.6089	0.0132
471.8099	0.0046
472.0109	0.0068
472.2119	0.021
472.4128	0.0059
472.6137	0.0154
472.8146	0.0054
473.0155	0.0194
473.2164	0.0048
473.4173	0.0045
473.6181	-0.0016
473.819	0.0121
474.0198	0.0041
474.2206	0.0016
474.4214	0.0068
474.6222	-0.0007
474.8229	0.0019
475.0237	0.0151
475.2244	0.0129
475.4251	0.005
475.6258	0.0022
475.8265	0.0018
476.0272	0.0014
476.2278	0.0114
476.4285	0.0103
476.6291	0.0113
476.8297	0.0118
477.0303	0.006
477.2309	0.0075
477.4315	0.013
477.632	0.0008
477.8326	0.0054
478.0331	0.0121
478.2336	0.0111
478.4341	0.0042
478.6346	0.0023
478.8351	0.001
479.0355	0.0078
479.236	0.0131
479.4364	0.0056
479.6368	0.0083
479.8372	0.005
480.0376	0.0011
480.2379	0.0064
480.4383	0.0083
480.6386	0.0039
480.8389	0.0066
481.0392	0.0072
481.2395	0.0099
481.4398	0.015
481.6401	0.007
481.8403	0.0044
482.0405	0.0032
482.2408	0.0065
482.441	0.0088
482.6411	0.0104
482.8413	0.0051
483.0415	0.0122
483.2416	0.0105
483.4417	0.0115
483.6419	0.0046
483.8419	0.004
484.042	0.0042
484.2421	0.0012
484.4422	0.0043
484.6422	0.0112
484.8422	0.0124
485.0422	0.0035
485.2422	0.002
485.4422	0.0033
485.6422	0.0026
485.8421	0.0042
486.042	0.0103
486.242	0.0022
486.4419	0.0062
486.6417	0.0028
486.8416	0.0074
487.0415	0.0026
487.2413	0.0011
487.4411	0.0103
487.641	-0.0002
487.8408	0.0158
488.0405	0.0069
488.2403	-0.0008
488.4401	0.0029
488.6398	0.0087
488.8395	0.0005
489.0392	0.0083
489.2389	0.0075
489.4386	-0.005
489.6383	0.0107
489.8379	0.0067
490.0376	-0.003
490.2372	0.0075
490.4368	-0.0029
490.6364	0.0026
490.836	0.0073
491.0355	0.001
491.2351	0.0047
491.4346	0.0018
491.6341	0.0009
491.8336	0.0105
492.0331	0.0061
492.2326	0.0046
492.432	0.0094
492.6315	0.0144
492.8309	0.0076
493.0303	0.0141
493.2297	0.0071
493.4291	0.0043
493.6284	0.0131
493.8278	-0.0033
494.0271	0.008
494.2264	0.0047
494.4257	0.0073
494.625	0.0036
494.8243	0.006
495.0236	0.0104
495.2228	0.0107
495.422	0.0045
495.6213	0.0027
495.8205	-0.0007
496.0196	0.0081
496.2188	0.0035
496.418	0.0062
496.6171	0.0037
496.8162	0.0086
497.0153	0.0079
497.2144	0.0017
497.4135	0.0038
497.6126	0.0068
497.8116	-0.0016
498.0107	0.0103
498.2097	0.0069
498.4087	0.0072
498.6077	-0.0087
498.8067	0.0073
499.0056	0.0019
499.2046	0.0089
499.4035	0.004
499.6024	-0.004
499.8013	0.0097
500.0002	0.0077
500.199	0.0137
500.3979	0.0039
500.5967	0.0032
500.7956	0.0148
500.9944	0.0099
501.1932	0.0138
501.3919	0.0158
501.5907	0.0094
501.7895	0.0093
501.9882	0.0117
502.1869	0.013
502.3856	0.0045
502.5843	0.0082
502.783	0.0125
502.9816	0.0088
503.1803	0.01
503.3789	0.0161
503.5775	0.0073
503.7761	-0.0003
503.9747	0.014
504.1732	-0.0051
504.3718	0.0114
504.5703	0.0091
504.7689	-0.0022
504.9674	0.0054
505.1658	-0.0019
505.3643	0.0095
505.5628	0.0145
505.7612	0.0074
505.9597	-0.0001
506.1581	-0.0022
506.3565	0.0033
506.5549	0.0017
506.7532	-0.0046
506.9516	0.0123
507.1499	0.0103
507.3482	0.0036
507.5465	0.005
507.7448	0.009
507.9431	0.0091
508.1414	0.002
508.3396	0.0014
508.5379	0.0083
508.7361	0.0075
508.9343	0.0071
509.1325	0.013
509.3306	0.001
509.5288	-0.0032
509.7269	0.0104
509.9251	0.0105
510.1232	0.0144
510.3213	0.0096
510.5193	-0.0017
510.7174	0.0068
510.9154	0.0138
511.1135	0.0045
511.3115	-0.0008
511.5095	0.0065
511.7075	0.0082
511.9055	0.0101
512.1034	0.0106
512.3014	0.0002
512.4993	0.0126
512.6972	-0.0038
512.8951	0.0088
513.093	0.0037
513.2908	0.0144
513.4887	0.0063
513.6865	0.011
513.8844	0.0055
514.0822	0.0077
514.2799	-0.0009
514.4777	-0.0005
514.6755	0.0033
514.8732	0.0085
515.0709	0.011
515.2687	0.0032
515.4664	0.0114
515.664	0.0088
515.8617	0.0099
516.0594	0.0087
516.257	0.0037
516.4546	0.0227
516.6522	0.0128
516.8498	0.0006
517.0474	0.003
517.2449	0.0046
517.4425	0.0078
517.64	0.0103
517.8375	0.0131
518.035	0.008
518.2325	-0.0021
518.43	-0.0049
518.6274	0.0006
518.8249	-0.0049
519.0223	0.0199
519.2197	0.0106
519.4171	0.0011
519.6145	0.0218
519.8118	0.001
520.0092	0.0001
520.2065	0.013
520.4038	0.0035
520.6011	0.0179
520.7984	0.0066
520.9956	0.0133
521.1929	0.0099
521.3901	0.0106
521.5874	0.0138
521.7846	-0
521.9818	0.009
522.1789	0.0027
522.3761	0.0155
522.5732	0.005
522.7704	-0.0026
522.9675	-0.0017
523.1646	0.0037
523.3617	0.0068
523.5587	0.0109
523.7558	0.0112
523.9528	0.0032
524.1498	-0.0026
524.3468	0.0054
524.5438	0.0107
524.7408	0.0097
524.9378	0.005
525.1347	0.0156
525.3316	-0
525.5285	0.0125
525.7254	0.0103
525.9223	0.0147
526.1192	0.0063
526.316	0.0017
526.5129	0.0041
526.7097	0.0052
526.9065	0.0063
527.1033	0.0044
527.3	-0.0023
527.4968	0.0094
527.6935	-0.0018
527.8903	0.0046
528.087	0.0093
528.2837	0.0159
528.4804	0.0028
528.677	0.0087
528.8737	0.0121
529.0703	-0.0009
529.2669	0.0165
529.4635	-0.008
529.6601	-0.0067
529.8567	0.0062
530.0532	-0.0007
530.2498	0.0029
530.4463	-0.0017
530.6428	0.0115
530.8393	0.0073
531.0358	0.0038
531.2322	0.0001
531.4287	0.0007
531.6251	-0.0023
531.8215	0.0099
532.0179	-0.0021
532.2143	0.0142
532.4107	0.0084
532.607	0.0043
532.8034	0.0054
532.9997	-0.0015
533.196	0.0062
533.3923	0.0094
533.5886	0.0085
533.7848	0.0047
533.9811	0.0082
534.1773	0.004
534.3735	0.0087
534.5697	0.0039
534.7659	0.0056
534.9621	0.0106
535.1582	0.0119
535.3544	0.0006
535.5505	0.0108
535.7466	0.0117
535.9427	0.0073
536.1387	-0.0002
536.3348	-0.0042
536.5308	0.0081
536.7269	-0.003
536.9229	0.0056
537.1189	0.0105
537.3148	0.0002
537.5108	0.0075
537.7068	0.01
537.9027	0.0013
538.0986	0.0116
538.2945	-0.001
538.4904	-0.0002
538.6863	0.0019
538.8821	0.0111
539.078	0.0176
539.2738	0.0083
539.4696	-0.0082
539.6654	0.0082
539.8611	0.0053
540.0569	0.0051
540.2526	0.0153
540.4484	-0.0024
540.6441	0.0067
540.8398	0.0166
541.0355	-0.0019
541.2311	-0.0024
541.4268	0.0086
541.6224	0.0082
541.818	0.0103
542.0136	0.0099
542.2092	0.0065
542.4048	0.0068
542.6003	0.0003
542.7959	0.0055
542.9914	0.0074
543.1869	0.0034
543.3824	0.0158
543.5779	0.014
543.7734	0.0206
543.9688	0.0126
544.1642	0.0019
544.3596	0.0144
544.555	0.0007
544.7504	0.0152
544.9458	0.0059
545.1411	0.0003
545.3365	0.0107
545.5318	0.011
545.7271	0.0113
545.9224	0.0039
546.1177	0.0096
546.3129	0.0088
546.5081	-0.0003
546.7034	0.0081
546.8986	-0.0031
547.0938	0.0044
547.289	0.0117
547.4841	0.0072
547.6793	0.0022
547.8744	0.0116
548.0695	-0.0043
548.2646	0.0064
548.4597	0.0036
548.6548	0.0153
548.8498	0.0187
549.0448	0.007
549.2399	0.0162
549.4349	0.0125
549.6298	0.0113
549.8248	0.0034
550.0198	0.0121
550.2147	0.0125
550.4096	-0.0072
550.6045	-0.004
550.7994	0.0003
550.9943	0.0055
551.1892	-0.0059
551.384	0.012
551.5788	0.011
551.7737	0.0115
551.9685	0.0029
552.1632	0.0003
552.358	0.0028
552.5528	0.0114
552.7475	0.0015
552.9422	0.0125
553.1369	0.019
553.3316	0.0043
553.5263	0.0098
553.7209	0.0076
553.9156	0.0096
554.1102	0.006
554.3048	0.0108
554.4994	0.0058
554.694	0.0132
554.8885	0.0041
555.0831	0.0147
555.2776	0.0076
555.4721	0.0068
555.6666	0.0086
555.8611	0.0094
556.0555	0.0033
556.25	0.0119
556.4444	-0.0053
556.6388	0.005
556.8332	0.0055
557.0276	0.0062
557.222	0.0041
557.4163	0.0048
557.6107	0.0022
557.805	-0.0005
557.9993	-0.0017
558.1936	-0.0007
558.3879	0.009
558.5821	-0.0014
558.7764	-0.0046
558.9706	-0.0063
559.1648	0.0049
559.359	0.0061
559.5532	0.0089
559.7473	-0.0029
559.9415	0.0063
560.1356	0.0152
560.3297	0.0048
560.5238	-0.0013
560.7179	-0.0061
560.9119	0.0025
561.106	0.0046
561.3	0.0034
561.494	0.0009
561.688	-0.0043
561.882	0.0018
562.076	0.0073
562.2699	0.0083
562.4639	0.016
562.6578	0.0129
562.8517	0.014
563.0456	0.0063
563.2395	0.0084
563.4333	0.015
563.6272	0.0022
563.821	0.0012
564.0148	-0.0005
564.2086	0.0076
564.4024	0.0189
564.5961	0.0097
564.7899	0.0133
564.9836	0.0105
565.1773	0.0152
565.371	0.0042
565.5647	0.0041
565.7584	0.0101
565.952	0.0022
566.1456	0.0069
566.3393	0.0121
566.5329	-0.0026
566.7264	0.0041
566.92	0.0069
567.1136	0.0055
567.3071	-0.0027
567.5006	0.0128
567.6941	-0.0006
567.8876	0.0051
568.0811	0.0221
568.2745	0.0032
568.468	0.0081
568.6614	0.0107
568.8548	0.0029
569.0482	0.0072
569.2416	0.0061
569.4349	0.0009
569.6283	0.0034
569.8216	0.006
570.0149	0.0029
570.2082	0.0104
570.4015	0.0008
570.5947	0.0046
570.788	0.007
570.9812	0.0009
571.1744	0.0042
571.3676	0.0066
571.5608	0.0013
571.754	0.0174
571.9471	0.0031
572.1402	0.0029
572.3333	0.0104
572.5264	0.0052
572.7195	-0.0007
572.9126	0.0028
573.1057	0.0104
573.2987	0.0052
573.4917	0.0042
573.6847	0.0052
573.8777	0.0062
574.0707	0.0085
574.2636	0.004
574.4566	0.0054
574.6495	0.0046
574.8424	0.0051
575.0353	0.0063
575.2281	0.0075
575.421	0.0034
575.6138	0.0021
575.8067	0.008
575.9995	0.003
576.1923	0.0081
576.385	0.007
576.5778	0.0121
576.7706	0.0014
576.9633	0.0051
577.156	0.002
577.3487	0.0033
577.5414	0.0029
577.734	0.0031
577.9267	0.0074
578.1193	0.0076
578.3119	0.0011
578.5045	0.0069
578.6971	0.0039
578.8897	0.0026
579.0822	0.0109
579.2747	0.0066
579.4673	0.0029
579.6598	0.0102
579.8522	0.0011
580.0447	0.0057
580.2372	0.0084
580.4296	0.0104
580.622	0.0034
580.8144	0.0084
581.0068	0.0076
581.1992	0.0057
581.3915	0.0001
581.5839	0.0042
581.7762	0.0044
581.9685	0.0043
582.1608	0.0049
582.353	0.0041
582.5453	0.0038
582.7375	0.0064
582.9298	0.0049
583.122	0.0014
583.3142	0.0083
583.5063	0.0054
583.6985	0.0035
583.8906	0.0029
584.0827	0.0043
584.2749	-0
584.4669	0.0039
584.659	0.0097
584.8511	0.0096
585.0431	0.0065
585.2352	0.0015
585.4272	0.0036
585.6192	0.0065
585.8111	0.0043
586.0031	0.0067
586.195	0.0037
586.387	0.0014
586.5789	0.0082
586.7708	0.0071
586.9627	0.0066
587.1545	0.0058
587.3464	0.008
587.5382	0.0067
587.73	0.0082
587.9218	0.0033
588.1136	-0
588.3053	0.0067
588.4971	0.0006
588.6888	0.0058
588.8805	0.004
589.0722	0.0096
589.2639	0.0086
589.4556	0.0087
589.6472	0.0013
589.8389	0.0041
590.0305	0.0033
590.2221	0.0064
590.4137	0.0029
590.6052	0.0048
590.7968	0.0075
590.9883	0.0012
591.1798	0.0087
591.3713	0.0023
591.5628	0.0083
591.7543	0.0047
591.9458	0.0033
592.1372	0.0059
592.3286	0.0036
592.52	0.0073
592.7114	0.0051
592.9028	0.0086
593.0941	0.0026
593.2855	0.0038
593.4768	0.0092
593.6681	0.0103
593.8594	0.0066
594.0506	-0.0012
594.2419	0.0096
594.4331	0.0043
594.6244	-0.0017
594.8156	-0.0025
595.0067	-0
595.1979	0.0027
595.3891	0.0001
595.5802	0.008
595.7713	0.0075
595.9624	0.0064
596.1535	0.0059
596.3446	-0.0026
596.5357	0.005
596.7267	0.0027
596.9177	0.0062
597.1087	0.0015
597.2997	0.0094
597.4907	0.0009
597.6817	0.0069
597.8726	0.0043
598.0635	0.0036
598.2544	0.0086
598.4453	0.0056
598.6362	0.0081
598.827	0.0076
599.0179	0.0024
599.2087	0.0024
599.3995	0.0067
599.5903	0.0099
599.7811	0.0066
599.9718	0.0005
600.1626	0
600.3533	0.0056
600.544	0.0063
600.7347	0.0056
600.9254	0.0104
601.116	0.0038
601.3067	0.0027
601.4973	0.0136
601.6879	0.0039
601.8785	0.0114
602.0691	0.0074
602.2596	0.0112
602.4502	0.0088
602.6407	0.0042
602.8312	0.004
603.0217	0.0054
603.2122	0.0056
603.4027	0.0042
603.5931	0.0023
603.7835	0.0091
603.9739	0.0037
604.1643	0.0063
604.3547	0.0087
604.5451	0.0071
604.7354	-0.0014
604.9257	-0.0032
605.116	-0.001
605.3063	0.0087
605.4966	-0.0001
605.6869	0.0099
605.8771	0.0126
606.0673	0.0021
606.2575	0.0067
606.4477	0.0141
606.6379	0.0062
606.8281	0.0048
607.0182	0.006
607.2083	0.0071
607.3985	0.0042
607.5885	0.0056
607.7786	0.0035
607.9687	0.0071
608.1587	0.0107
608.3488	0.0077
608.5388	0.0027
608.7288	0.0011
608.9187	0.0022
609.1087	0.0068
609.2986	0.0067
609.4886	0.0056
609.6785	0.0084
609.8684	0.004
610.0582	-0.0012
610.2481	0.0018
610.4379	0.0105
610.6278	0.0061
610.8176	0.0107
611.0074	0.0104
611.1971	0.0034
611.3869	0.004
611.5766	-0.0024
611.7664	0.0103
611.9561	0.0089
612.1458	0.0034
612.3354	0.002
612.5251	0.002
612.7147	0.0107
612.9044	-0.0022
613.094	0.0062
613.2836	-0.0004
613.4731	0.0056
613.6627	0.0029
613.8522	0.0062
614.0417	0.0031
614.2313	0.001
614.4207	0.0093
614.6102	0.0085
614.7997	0.0142
614.9891	0.0046
615.1785	0.0044
615.3679	0.0021
615.5573	0.0116
615.7467	-0.0005
615.9361	0.0031
616.1254	0.0153
616.3147	0.0159
616.504	0.0045
616.6933	0.0079
616.8826	-0.0038
617.0718	0.0068
617.2611	-0.0041
617.4503	-0.002
617.6395	-0.0018
617.8287	0.0098
618.0179	0.0034
618.207	0.0123
618.3961	0.0044
618.5853	0.0037
618.7744	0.0127
618.9634	0.0169
619.1525	0.0039
619.3416	0.0051
619.5306	0.0095
619.7196	0.0058
619.9086	0.0033
620.0976	-0.0068
620.2866	0.0149
620.4755	0.0043
620.6645	-0.0014
620.8534	0.0092
621.0423	0.0029
621.2312	-0.0062
621.42	-0.0026
621.6089	0.0036
621.7977	0.0046
621.9865	0.0054
622.1753	-0.0023
622.3641	0.0011
622.5529	-0.0037
622.7416	0.0016
622.9303	0.0013
623.1191	0.0031
623.3078	0.0018
623.4964	-0
623.6851	0.0093
623.8737	0.0036
624.0624	0.0027
624.251	0.0126
624.4396	0.0054
624.6282	0.011
624.8167	-0.0003
625.0053	0.0094
625.1938	0.0116
625.3823	0.0131
625.5708	0.0006
625.7593	0.0025
625.9477	0.0255
626.1362	0.0047
626.3246	-0.0068
626.513	0.0042
626.7014	0.0064
626.8898	0.0155
627.0781	0.013
627.2665	0.0119
627.4548	-0.0087
627.6431	0.0174
627.8314	0.0139
628.0197	0.0242
628.2079	-0.0079
628.3962	0.0123
628.5844	-0.0061
628.7726	0.0068
628.9608	0.0136
629.1489	0.0056
629.3371	-0.0046
629.5252	0.0033
629.7134	0.0098
629.9015	-0.0013
630.0895	0.004
630.2776	0.0195
630.4657	0.0159
630.6537	0.0107
630.8417	-0.0007
631.0297	0.0087
631.2177	0.0151
631.4057	0.0133
631.5936	-0.0054
631.7815	0.0039
631.9695	0.0217
632.1574	0.0155
632.3452	0.0024
632.5331	-0.0041
632.7209	0.0185
632.9088	0.0004
633.0966	0.0148
633.2844	0.012
633.4722	0.0053
633.6599	0.0203
633.8477	0.0034
634.0354	0.0179
634.2231	-0.0087
634.4108	-0.0073
634.5985	-0.0014
634.7861	0.0126
634.9738	-0.0084
635.1614	0.0067
635.349	-0.0116
635.5366	0.007
635.7242	0.0054
635.9117	0.0057
636.0993	-0.0095
636.2868	-0.0094
636.4743	0.008
636.6618	-0.0173
636.8492	0.0001
637.0367	-0.0104
637.2241	0.0052
637.4115	0.0189
637.5989	0.0017
637.7863	0.0441
637.9737	0.0038
638.161	0.0097
638.3484	-0.0082
638.5357	0.0069
638.723	0.027
638.9103	-0.0195
639.0975	0.0132
639.2848	0.0161
639.472	0.0133
639.6592	-0.013
639.8464	0.003
640.0336	0.002
640.2208	-0.0065
640.4079	0.0007
640.595	-0.01
640.7821	0.0276
640.9692	-0.0083
641.1563	0.0021
641.3434	0.0067
641.5304	0.0075
641.7174	0.0101
641.9044	0.0133
642.0914	0.0313
642.2784	0.0018
642.4653	0.0013
642.6523	0.0063
642.8392	-0.0003
643.0261	0.0034
643.213	0.0195
643.3999	0.0223
643.5867	0.009
643.7735	0.007
643.9604	0.0159
644.1472	0.0079
644.3339	0.0015
644.5207	0.006
644.7075	0.0009
644.8942	-0.0089
645.0809	0.008
645.2676	-0.0178
645.4543	-0.0001
645.6409	0.0188
645.8276	0.0122
646.0142	-0.0001
646.2008	-0.0007
646.3874	0.012
646.574	0.0129
646.7605	0.001
646.9471	-0.0031
647.1336	-0.0158
647.3201	0.0004
647.5066	-0.0012
647.6931	-0.0147
647.8795	0.0097
648.0659	0.0096
648.2524	0.0107
648.4388	0.0003
648.6252	0.012
648.8115	0.0065
648.9979	0.0208
649.1842	0.0087
649.3705	0.0088
649.5568	-0.0105
649.7431	-0.0067
649.9294	-0.0078
650.1156	-0.0233
650.3018	0.0085
650.488	0.0225
650.6742	0.0202
650.8604	0.0119
651.0466	-0.0054
651.2327	0.0164
651.4188	-0.0046
651.6049	0.0255
651.791	0.0005
651.9771	0.0184
652.1632	0.0071
652.3492	0.0157
652.5352	0.0242
652.7212	-0.0016
652.9072	-0.0011
653.0932	0.0246
653.2791	-0.0173
653.465	0.0098
653.651	0.0114
653.8369	0.0068
654.0227	0.0016
654.2086	0.0138
654.3944	-0.0025
654.5803	0.0069
654.7661	0.0057
654.9519	0.0005
655.1377	0.0001
655.3234	0.0001
655.5092	0.0001
655.6949	0.0001
655.8806	0.0001
656.0663	0.0001
656.2519	0.0001
656.4376	0.0001
656.6232	0.0001
656.8088	0.0001
656.9945	0.0001
657.18	0.0001
657.3656	0.0001
657.5511	0.0001
657.7367	0.0001
657.9222	0.0001
658.1077	0.0001
658.2932	0.0001
658.4786	0.0001
658.6641	0.0001
658.8495	0.0001
659.0349	0.0001
659.2203	0.0001
659.4057	0.0001
659.591	0.1502
659.7764	0.0207
659.9617	0.0141
660.147	0.0069
660.3323	0.0015
660.5176	-0.0027
660.7028	-0.0077
660.888	0.0119
661.0733	0.0176
661.2585	-0.0101
661.4436	0.0045
661.6288	0.0175
661.8139	-0.0014
661.9991	-0.0039
662.1842	0.0012
662.3693	0.0083
662.5544	0.0059
662.7394	0.0165
662.9245	-0.0001
663.1095	-0.0244
663.2945	-0.0143
663.4795	0.012
663.6644	0.0015
663.8494	0.0187
664.0343	0.0131
664.2193	-0.0118
664.4042	0.0175
664.589	0.0159
664.7739	0.0043
664.9587	-0.0036
665.1436	0.0004
665.3284	0.016
665.5132	-0.02
665.698	0.0059
665.8827	0.0194
666.0675	-0.0352
666.2522	0.0102
666.4369	-0.0053
666.6216	-0.0008
666.8063	0.0098
666.9909	0.0244
667.1756	-0.0024
667.3602	0.0068
667.5448	0.0058
667.7294	0.0208
667.9139	0.0026
668.0985	0.0057
668.283	0.0226
668.4675	0.0187
668.652	0.0034
668.8365	0.013
669.0209	-0.0037
669.2054	0.0037
669.3898	0.0008
669.5742	0.0189
669.7586	0.0189
669.943	0.0032
670.1273	0.0072
670.3117	0.0331
670.496	0.0044
670.6803	0.0011
670.8646	-0.0247
671.0488	0.0219
671.2331	-0.0207
671.4173	0.0014
671.6015	0.013
671.7857	0.0061
671.9699	0.017
672.1541	-0.0093
672.3382	0.0064
672.5223	-0.0058
672.7064	0.0021
672.8905	-0.0125
673.0746	0.0012
673.2587	0.018
673.4427	0.0218
673.6267	0.0242
673.8107	0.0192
673.9947	0.0115
674.1787	-0.0085
674.3626	0.0021
674.5465	0.0196
674.7304	-0.0069
674.9143	0.0093
675.0982	0.0008
675.2821	0.0257
675.4659	-0.0007
675.6497	0.0093
675.8335	0.0035
676.0173	-0.0161
676.2011	0.0132
676.3849	0.0179
676.5686	0.016
676.7523	-0.0057
676.936	-0.0039
677.1197	-0.0134
677.3034	0.0275
677.487	0.0065
677.6706	-0.0038
677.8542	-0.007
678.0378	0.0013
678.2214	0.0097
678.405	-0.0067
678.5885	0.0082
678.772	0.0032
678.9555	0.0066
679.139	0.0093
679.3225	0.0049
679.5059	0.0016
679.6894	-0.0052
679.8728	-0.0015
680.0562	0.01
680.2395	0.0004
680.4229	-0.0006
680.6062	-0.0038
680.7896	0.008
680.9729	0.0144
681.1562	0.0097
681.3394	-0.001
681.5227	-0.0017
681.7059	0.012
681.8891	0.0063
682.0723	-0.0106
682.2555	0.0103
682.4387	0.0237
682.6218	0.0015
682.805	0.0059
682.9881	0.021
683.1712	0.0037
683.3542	0.0319
683.5373	-0.0167
683.7203	0.0059
683.9034	-0.0104
684.0864	0.0049
684.2694	0.0057
684.4523	0.0013
684.6353	-0.0006
684.8182	-0.0049
685.0011	0.0073
685.184	0.0006
685.3669	0.0294
685.5498	0.0003
685.7326	-0.0038
685.9154	0.0043
686.0982	0.031
686.281	0.0054
686.4638	0.0174
686.6465	0.0072
686.8293	-0.0137
687.012	0.0137
687.1947	0.0067
687.3774	-0.0073
687.56	0.0023
687.7427	-0.0033
687.9253	-0.0332
688.1079	0.0133
688.2905	0.0109
688.4731	0.0276
688.6556	0.0121
688.8382	-0.012
689.0207	0.008
689.2032	0.0265
689.3857	0.0009
689.5681	-0.0048
689.7506	0.0172
689.933	-0.0041
690.1154	0.0093
690.2978	0.0007
690.4802	0.0169
690.6626	0.0165
690.8449	0.0069
691.0272	0.0047
691.2095	-0.0034
691.3918	0.0056
691.5741	0.0184
691.7563	0.0105
691.9386	0.016
692.1208	-0.0023
692.303	-0.0066
692.4852	-0.0025
692.6673	-0.0001
692.8495	-0.0155
693.0316	0.0225
693.2137	0.011
693.3958	0.0185
693.5778	0.0133
693.7599	-0.016
693.9419	-0.0005
694.1239	0.0152
694.3059	0.0335
694.4879	-0.0158
694.6699	-0.0021
694.8518	-0.0022
695.0337	0.019
695.2157	0.0332
695.3975	-0.0191
695.5794	-0.014
695.7613	0.0239
695.9431	-0.0149
696.1249	0.0425
696.3067	-0.015
696.4885	0.0174
696.6703	0.0042
696.852	0.0068
697.0337	0.0194
697.2154	0.0192
697.3971	0.0108
697.5788	0.0046
697.7605	-0.0075
697.9421	0.0036
698.1237	0.0219
698.3053	-0.0049
698.4869	0.0052
698.6685	-0.004
698.85	0.0018
699.0315	-0.0112
699.213	0.0005
699.3945	-0.0145
699.576	0.0077
699.7575	0.0161
699.9389	-0.009
700.1203	-0.0041
700.3017	-0.0006
700.4831	0.0159
700.6645	0.021
700.8458	-0.0172
701.0271	0.0382
701.2084	0.0145
701.3897	0.0339
701.571	-0.0146
701.7523	0.0407
701.9335	0.0039
702.1147	0.0284
702.2959	0.0032
702.4771	0.0184
702.6583	-0.0014
702.8394	-0.0092
703.0205	0.0085
703.2016	-0.0062
703.3827	-0.0078
703.5638	0.0071
703.7449	0.0044
703.9259	0.0267
704.1069	-0.0038
704.2879	-0.0091
704.4689	0.0011
704.6499	0.0198
704.8308	0.0462
705.0117	0.0018
705.1927	0.0158
705.3735	-0.005
705.5544	0.0093
705.7353	0.0231
705.9161	-0.0152
706.0969	0.0113
706.2777	-0.0001
706.4585	0.0066
706.6393	0.0325
706.82	0.0161
707.0007	-0.0064
707.1815	-0.0072
707.3621	0.0258
707.5428	0.0092
707.7235	-0.0048
707.9041	-0.0006
708.0847	0.0093
708.2653	0.0367
708.4459	0.0032
708.6265	0.0026
708.807	0.0033
708.9875	-0.0027
709.168	0.0016
709.3485	0.0155
709.529	0.0242
709.7095	-0.0163
709.8899	0.0055
710.0703	0.0099
710.2507	0.0112
710.4311	-0.0031
710.6115	0.0472
710.7918	0.0262
710.9721	0.0107
711.1524	0.0017
711.3327	-0.0029
711.513	0.0177
711.6932	-0.001
711.8735	0.0265
712.0537	-0.0142
712.2339	-0.0097
712.4141	0.0345
712.5942	-0.0038
712.7744	0.0082
712.9545	0.0108
713.1346	0.0214
713.3147	0.003
713.4947	-0.005
713.6748	0.0071
713.8548	0.0101
714.0348	0.0209
714.2148	0.0083
714.3948	0.0198
714.5748	0.021
714.7547	0.0192
714.9346	0.0528
715.1145	-0.0054
715.2944	-0.01
715.4743	0.0268
715.6541	-0.0304
715.834	0.036
716.0138	-0.0007
716.1936	-0.027
716.3733	0.0048
716.5531	-0.0018
716.7328	0.027
716.9126	-0.0087
717.0923	-0.004
717.2719	0.0035
717.4516	0.0217
717.6312	0.007
717.8109	0.0229
717.9905	0.0065
718.1701	0.0144
718.3496	0.0014
718.5292	-0.015
718.7087	-0.0134
718.8882	0.0394
719.0677	-0.0005
719.2472	-0.0077
719.4267	-0.0215
719.6061	-0.0223
719.7856	0.0297
719.965	-0.0069
720.1443	0.0057
720.3237	0.0258
720.5031	0.006
720.6824	-0.014
720.8617	0.007
721.041	0.0319
721.2203	-0.0046
721.3995	0.0118
721.5788	0.0237
721.758	-0.0096
721.9372	0.0142
722.1164	-0.0199
722.2956	0.0003
722.4747	0.0311
722.6538	0.002
722.8329	0.0218
723.012	-0.0014
723.1911	-0.0147
723.3702	0.0156
723.5492	0.0129
723.7282	0.0076
723.9072	0.0311
724.0862	-0.0011
724.2652	0.0072
724.4441	-0.0074
724.623	0.0074
724.8019	-0.0033
724.9808	0.0273
725.1597	-0.0035
725.3385	0.0129
725.5174	-0.0098
725.6962	0.0172
725.875	0.0174
726.0538	0.0061
726.2325	0.0409
726.4112	-0.0016
726.59	-0.0138
726.7687	-0.0096
726.9474	0.0485
727.126	0.0067
727.3047	0.0204
727.4833	0.0124
727.6619	-0.0132
727.8405	-0.0169
728.0191	0.0233
728.1976	0.0153
728.3762	0.0171
728.5547	-0.0145
728.7332	0.0089
728.9116	0.0019
729.0901	-0.0014
729.2686	0.0123
729.447	-0.0123
729.6254	0.0107
729.8038	0.0024
729.9821	-0.0048
730.1605	-0.0017
730.3388	-0.0058
730.5171	0.017
730.6954	-0.0305
730.8737	0.0086
731.0519	-0.0021
731.2302	0.0173
731.4084	-0.0086
731.5866	-0.0016
731.7648	0.0204
731.9429	0.0191
732.1211	0.0064
732.2992	-0.0207
732.4773	0.0067
732.6554	-0.0077
732.8335	0.0318
733.0115	0.0036
733.1896	-0.0073
733.3676	0.013
733.5456	0.0063
733.7235	0.0042
733.9015	0.0235
734.0794	-0.0141
734.2574	-0.0438
734.4353	0.022
734.6131	-0.0021
734.791	0.0206
734.9689	-0.013
735.1467	-0.0219
735.3245	0.025
735.5023	0.004
735.68	0.0079
735.8578	0.0015
736.0355	0.0248
736.2132	-0.0017
736.3909	0.0098
736.5686	-0.0042
736.7463	-0.0117
736.9239	0.0157
737.1015	0.0052
737.2791	0.0154
737.4567	-0.0132
737.6343	0.0056
737.8118	0.0066
737.9894	-0.0085
738.1669	-0.0103
738.3444	0.0379
738.5218	-0.0197
738.6993	0.0073
738.8767	0.0032
739.0541	-0.0026
739.2315	-0.0098
739.4089	0.0002
739.5863	0.0018
739.7636	0.0135
739.9409	0.0013
740.1182	0.0175
740.2955	0.0097
740.4728	-0.0147
740.65	-0.0048
740.8272	0.0194
741.0044	-0.0101
741.1816	0.0189
741.3588	-0.0161
741.5359	-0.0101
741.7131	0.0128
741.8902	-0.0156
742.0673	-0.0246
742.2444	0.015
742.4214	0.0141
742.5985	0.0044
742.7755	-0.0079
742.9525	-0.033
743.1295	-0.0232
743.3064	0.0008
743.4834	0.0211
743.6603	0.0788
743.8372	-0.0616
744.0141	0.0158
744.191	-0.0011
744.3678	-0.0394
744.5446	0.0121
744.7215	-0.0002
744.8982	0.0258
745.075	0.0296
745.2518	0.0122
745.4285	0.0332
745.6052	-0.0094
745.7819	-0.0011
745.9586	0.0039
746.1353	-0.0137
746.3119	-0.0181
746.4885	0.0277
746.6651	0.005
746.8417	-0.0215
747.0183	0.0186
747.1948	0.0094
747.3714	0.0003
747.5479	0.0085
747.7244	0.0072
747.9008	-0.0052
748.0773	0.071
748.2537	0.0218
748.4301	0.0227
748.6065	-0.0109
748.7829	-0.0225
748.9593	-0.0163
749.1356	0.0043
749.3119	-0.0089
749.4882	0.0275
749.6645	-0.0146
749.8408	0.0145
750.017	0.0166
750.1933	-0.0235
750.3695	0.0189
750.5457	-0.0085
750.7218	-0.0148
750.898	0.0073
751.0741	0.0115
751.2502	0.0127
751.4263	0.0021
751.6024	0.029
751.7784	-0.0008
751.9545	-0.0107
752.1305	0.0029
752.3065	0.0153
752.4825	-0.0182
752.6584	0.0165
752.8344	0.026
753.0103	-0.0098
753.1862	-0.0036
753.3621	0.0064
753.5379	0.0121
753.7138	0.0285
753.8896	0.0009
754.0654	-0.006
754.2412	-0.0005
754.417	0.0315
754.5927	0.0179
754.7685	0.027
754.9442	0.0156
755.1199	0.0225
755.2956	0.0037
755.4712	0.0104
755.6469	0.0101
755.8225	0.0175
755.9981	0.0158
756.1736	0.0111
756.3492	0.0011
756.5248	0.0241
756.7003	-0.0156
756.8758	-0.0071
757.0513	0.0037
757.2267	0.006
757.4022	-0.0003
757.5776	0.007
757.753	0.0176
757.9284	0.0013
758.1038	0.0232
758.2791	0.0071
758.4545	0.0145
758.6298	-0.0044
758.8051	0.008
758.9803	0.0169
759.1556	-0.0006
759.3308	-0.0134
759.506	0.0113
759.6812	0.0079
759.8564	0.0149
760.0316	0.0007
760.2067	0.0303
760.3819	0.005
760.557	-0.0003
760.732	0.0095
760.9071	0.0337
761.0821	0.0012
761.2572	0.0122
761.4322	-0.0066
761.6072	-0.0135
761.7821	-0.0217
761.9571	0.0049
762.132	-0.0103
762.3069	0.0255
762.4818	0.0205
762.6567	-0.0045
762.8316	0.019
763.0064	0.0217
763.1812	0.0281
763.356	-0.0116
763.5308	0.013
763.7055	-0.0136
763.8803	0.0173
764.055	-0.0087
764.2297	-0.0151
764.4044	-0.0034
764.579	-0.0174
764.7537	-0.013
764.9283	0.0032
765.1029	0.0186
765.2775	0.0123
765.4521	0.0007
765.6266	0.0071
765.8011	0.0185
765.9756	0.0216
766.1501	-0.0114
766.3246	0.0293
766.4991	0.0199
766.6735	0.0353
766.8479	0.0255
767.0223	0.0481
767.1967	-0.0019
767.371	0.0346
767.5454	0.0268
767.7197	0.0237
767.894	-0.0054
768.0683	0.0119
768.2425	-0.0029
768.4168	0.0022
768.591	-0.0122
768.7652	-0.008
768.9394	-0.0158
769.1135	-0.01
769.2877	0.0296
769.4618	0.0305
769.6359	-0.008
769.81	0.0056
769.984	0.0105
770.1581	0.0093
770.3321	0.0319
770.5061	-0.0026
770.6801	0.0148
770.8541	0.0199
771.028	0.0187
771.202	0.0134
771.3759	0.0132
771.5498	0.0113
771.7236	-0.0055
771.8975	0.0012
772.0713	0.0156
772.2451	-0.0239
772.4189	0.0146
772.5927	-0.0028
772.7665	0.0161
772.9402	0.0324
773.1139	0.0098
773.2876	-0.0079
773.4613	0.0325
773.635	0.0377
773.8086	0.0417
773.9822	0.0334
774.1558	0.0344
774.3294	-0.001
774.503	0.0202
774.6765	0.0271
774.8501	0.0164
775.0236	0.014
775.1971	-0.0101
775.3705	0.0253
775.544	-0.0334
775.7174	0.0416
775.8908	0.0369
776.0642	0.0748
776.2376	0.0749
776.4109	0.0005
776.5843	0.0139
776.7576	0.0204
776.9309	0.0038
777.1041	0.0177
777.2774	0.0046
777.4506	0.027
777.6238	-0.0445
777.797	0.0379
777.9702	0.026
778.1434	0.0085
778.3165	-0.0213
778.4896	-0.03
778.6627	0.0229
778.8358	-0.0122
779.0089	0.0181
779.1819	0.0485
779.3549	0.0127
779.5279	-0.0118
779.7009	0.0416
779.8739	0.0523
780.0468	0.0184
780.2197	-0.0121
780.3926	-0.0318
780.5655	0.0251
780.7384	0.005
780.9112	0.0141
781.0841	-0.0057
781.2569	0.0052
781.4297	0.0113
781.6024	-0.0074
781.7752	0.03
781.9479	0.0485
782.1206	0.0046
782.2933	0.0112
782.466	0.03
782.6386	-0.0137
782.8113	-0.0201
782.9839	0.0075
783.1565	0.0206
783.329	0.0056
783.5016	0.0003
783.6741	0.021
783.8466	0.0299
784.0191	0.0157
784.1916	-0.0112
784.3641	-0.0409
784.5365	0.0136
784.7089	-0.0247
784.8813	0.0348
785.0537	0.0398
785.2261	0.0034
785.3984	0.0095
785.5707	-0.0343
785.743	0.0414
785.9153	0.0248
786.0876	-0.0123
786.2598	-0.0062
786.432	-0.0297
786.6042	0.0395
786.7764	-0.0266
786.9486	0.0046
787.1207	0.0432
787.2928	0.027
787.4649	-0.0048
787.637	-0.0084
787.8091	-0.0037
787.9811	0.0235
788.1532	-0.011
788.3252	-0.0054
788.4972	0.0282
788.6691	0.0021
788.8411	-0.005
789.013	0.0131
789.1849	0.0313
789.3568	-0.005
789.5287	0.0658
789.7005	-0.0287
789.8723	-0.0549
790.0442	-0.0024
790.2159	-0.0066
790.3877	0.0005
790.5595	-0.0285
790.7312	0.0526
790.9029	-0.0045
791.0746	0.0524
791.2463	-0.0488
791.4179	0.0267
791.5896	0.0365
791.7612	0.0404
791.9328	-0.0398
792.1044	0.0007
792.2759	-0.0584
792.4474	-0.0242
792.619	-0.0039
792.7905	0.067
792.9619	0.0825
793.1334	0.0367
793.3048	0.0924
793.4762	0.015
793.6476	-0.041
793.819	-0.0255
793.9904	-0.0312
794.1617	-0.0285
794.333	-0.0117
794.5043	-0.0104
794.6756	0.0027
794.8469	0.0235
795.0181	0.0337
795.1893	0.0505
795.3605	0.0059
795.5317	0.02
795.7029	-0.0327
795.874	-0.0013
796.0452	-0.0014
796.2163	0.0649
796.3873	0.1116
796.5584	0.0821
796.7294	-0.0124
796.9005	0.0538
797.0715	0.0137
797.2425	0.0075
797.4134	0.0295
797.5844	0.0237
797.7553	-0.0191
797.9262	0.0951
798.0971	0.009
798.2679	0.0155
798.4388	0.0086
798.6096	-0.0113
798.7804	-0.0101
798.9512	0.0785
799.122	0.0232
799.2927	0.0431
799.4635	-0.047
799.6342	-0.0022
799.8049	0.0302
799.9755	0.0092
800.1462	0.0378
800.3168	0.0554
800.4874	-0.098
800.658	0.0763
800.8286	0.0183
800.9991	0.0404
801.1696	-0.0539
801.3402	-0.0166
801.5106	0.0251
801.6811	0.0192
801.8516	0.0722
802.022	-0.0192
802.1924	-0.0681
802.3628	-0.0292
802.5332	0.0618
802.7035	0.0122
802.8739	-0.0085
803.0442	0.0049
803.2145	0.0042
803.3847	-0.0262
803.555	-0.0146
803.7252	0.0155
803.8954	-0.0261
804.0656	-0.0437
804.2358	-0.0044
804.4059	0.0807
804.5761	0.0107
804.7462	0.0115
804.9163	0.0089
805.0864	-0.0309
805.2564	-0.059
805.4264	-0.0676
805.5965	0.0051
805.7665	-0.0243
805.9364	0.0025
806.1064	-0.0109
806.2763	0.0745
806.4462	-0.0068
806.6161	0.0566
806.786	0.0076
806.9559	-0.0277
807.1257	0.015
807.2955	0.0063
807.4653	0.0635
807.6351	0.0285
807.8048	0.0035
807.9746	0.0007
808.1443	-0.0138
808.314	0.0066
808.4837	0.0399
808.6533	-0.019
808.8229	0.031
808.9926	0.07
809.1622	0.009
809.3317	-0.0142
809.5013	-0.0062
809.6708	0.0559
809.8403	0.0311
810.0098	0.0192
810.1793	-0.0426
810.3488	-0.0159
810.5182	0.1307
810.6876	0.023
810.857	0.0171
811.0264	-0.0662
811.1958	0.1241
811.3651	0.0037
811.5344	0.0353
811.7037	0.0156
811.873	0.0941
812.0422	-0.0041
812.2115	0.0328
812.3807	-0.0503
812.5499	-0.098
812.7191	-0.0945
812.8882	0.005
813.0574	0.0786
813.2265	0.024
813.3956	0.0568
813.5646	0.0059
813.7337	0.0484
813.9027	-0.1414
814.0718	-0.0212
814.2407	0.0576
814.4097	0.0729
814.5787	0.1093
814.7476	0.0342
814.9165	0.0039
815.0854	0.0387
815.2543	0.1193
815.4232	0.0538
815.592	0.0383
815.7608	-0.1205
815.9296	0.0882
816.0984	0.0626
816.2671	-0.1638
816.4359	0.0791
816.6046	0.0934
816.7733	0.073
816.942	-0.0561
817.1106	0.1317
817.2793	-0.0317
817.4479	-0.0477
817.6165	-0.0026
817.785	0.1543
817.9536	-0.104
818.1221	0.047
818.2906	-0.1049
818.4591	0.0634
818.6276	-0.0294
818.7961	-0.0378
818.9645	0.1213
819.1329	0.0758
819.3013	-0.1388
819.4697	0.062
819.638	0.1925
819.8064	0.0694
819.9747	0.0221
820.143	0.1259
820.3113	0.0146
820.4795	0.0357
820.6477	0.0768
820.816	0.0269
820.9842	0.2041
821.1523	0.0402
821.3205	0.0715
821.4886	-0.0637
821.6567	0.0014
821.8248	0.1451
821.9929	-0.0804
822.1609	0.0298
822.329	0.1054
822.497	0.0947
822.665	0.015
822.833	0.0098
823.0009	0.0389
823.1688	0.1915
823.3367	-0.0541
823.5046	0.0663
823.6725	-0.0267
823.8404	0.2089
824.0082	-0.0319
824.176	0.0862
824.3438	0.0825
824.5116	-0.0525
824.6793	0.0507
824.847	0.1484
825.0147	-0.1204
825.1824	0.2027
825.3501	0.0289
825.5177	0.0348
825.6854	-0.2529
825.853	0.0199
826.0206	-0.0648
826.1881	0.3295
826.3557	-0.0963
826.5232	0.1699
826.6907	0.0182
826.8582	0.043
827.0257	0.1055
827.1931	0.1041
827.3605	0.0685
827.528	-0.0556
827.6953	-0.3371
827.8627	-0.0653
828.03	0.004
828.1974	-0.0806
828.3647	0.0098
828.532	0.0869
828.6992	0.0528
828.8665	-0.1244
829.0337	0.0898
829.2009	-0.1266
829.3681	-0.0199
829.5352	-0.2417
829.7024	0.0391
829.8695	-0.0515
830.0366	0.1778
830.2037	0.0561
830.3707	0.0724
830.5378	-0.1577
830.7048	-0.0857
830.8718	0.1392
831.0388	-0.0378
831.2057	0.3704
831.3727	-0.0604
831.5396	-0.0068
831.7065	-1.0392
831.8734	0.311
832.0402	0.1289
832.2071	-0.707
832.3739	-0.2575
832.5407	-1.7782
832.7075	-0.2365
832.8742	-0.0411
833.041	0.0389
833.2077	1.2647
833.3744	0.0783
833.541	0.0267
833.7077	-0.0818
833.8743	-0.0675
834.0409	-0.0213
834.2075	0.0041
834.3741	-0.1136
834.5407	0.1864
834.7072	0.1549
834.8737	0.0292
835.0402	0.4747
835.2067	0.5158
835.3731	-0.0575
835.5395	-0.0502
835.706	-0.1189
835.8723	-0.014
836.0387	0.1101
836.2051	-0.1161
836.3714	0.1044
836.5377	0.1808
836.704	0.2022
836.8703	-0.0786
837.0365	-0.6642
837.2027	0.3753
837.3689	0.1542
837.5351	0.1732
837.7013	-0.2058
837.8674	-0.4138
838.0335	0.0588
838.1997	0.0435
838.3657	-0
838.5318	-0.0141
838.6978	-0.0586
838.8639	-0.236
839.0299	0.1131
839.1958	0.2199
839.3618	-0.0433
839.5277	0.3891
839.6937	-0.2006
839.8596	0.1934
840.0254	0.0135
840.1913	0.2445
840.3571	0.1078
840.523	-0.8573
840.6888	-0.1007
840.8545	-0.675
841.0203	0.2781
841.186	0.0957
841.3517	-0.3612
841.5174	0.3984
841.6831	0.0675
841.8488	0.2654
842.0144	0.4451
842.18	0.0634
842.3456	-0.5337
842.5112	-0
842.6767	-0.2347
842.8422	-0.0419
843.0077	-0.0997
843.1732	-0.3397
843.3387	0.0506
843.5042	0.3807
843.6696	0.31
843.835	0.1587
844.0004	-0.3345
844.1657	0.1996
844.3311	-0.1691
844.4964	-0
844.6617	0.2436
844.827	0.3906
844.9923	0.1598
845.1575	-0.0733
845.3227	-0.1974
845.4879	-0.2428
845.6531	0.1589
845.8183	-0
845.9834	-0
846.1485	0.9679
846.3136	0.9729
846.4787	-0.1186
846.6438	-0.0552
846.8088	0.3171
846.9738	-0
847.1388	0.1795
847.3038	0.559
847.4687	0.6218
847.6337	-0
847.7986	0.1633
847.9635	-0.3001
848.1284	0.1767
848.2932	-0.0811
848.458	-0
848.6228	0.8643
848.7876	-0
848.9524	-0.4691
849.1172	-1.8023
849.2819	-0
849.4466	-0
849.6113	0.2519
849.7759	-0
849.9406	-0.3475
850.1052	-0
850.2698	-0
850.4344	-0.7329
850.599	-0.0057
850.7635	0.2726
850.928	-0
851.0925	0.355
851.257	0.9109
851.4215	0.1845
851.5859	-0.0486
851.7503	-0
851.9147	-0.2833
852.0791	0.0412
852.2434	0.5681
852.4078	-0.3305
852.5721	0.0647
852.7364	-0.2842
852.9007	0.0232
853.0649	-0
853.2291	0.2703
853.3934	-0
853.5575	-0.0878
853.7217	0.227
853.8859	0.4226
854.05	-0.3781
854.2141	0.1731
854.3782	-0
854.5423	0.0147
854.7063	-0.08
854.8703	0.1071
855.0343	0.0808
855.1983	0.137
855.3623	0.0404
855.5262	-0
855.6901	-0
855.854	0.7528
856.0179	-0.1276
856.1818	-0
856.3456	-0
856.5094	-0.2125
856.6732	-0.4956
856.837	-0
857.0008	-0.1455
857.1645	-0.4324
857.3282	-0.4272
857.4919	0.0728
857.6556	-0
857.8192	-0.1659
857.9828	-0
858.1465	-0.3127
858.31	-0
858.4736	-0.6983
858.6372	-0
858.8007	0.1964
858.9642	0.4635
859.1277	0.4001
859.2911	-0.8642
859.4546	-0
859.618	0.2377
859.7814	-0
859.9448	-0
860.1081	-0
860.2715	-0
860.4348	-0
860.5981	0.997
860.7614	-0
860.9246	0.2709
861.0879	0.2247
861.2511	-0
861.4143	-0
861.5774	-0.1145
861.7406	-0
861.9037	-0
862.0668	-0.8012
862.2299	0.252
862.393	-0.1997
862.556	-0.3511
862.7191	-0.2987
862.8821	0.2598
863.0451	-0.0685
863.208	-0
863.371	-0.6104
863.5339	0.3665
863.6968	0.2659
863.8597	0.4145
864.0225	0.1094
864.1854	-0.0378
864.3482	-1.3202
864.511	0.0309
864.6737	-0.1028
864.8365	0.0721
864.9992	-0
865.1619	0.1513
865.3246	-1.7952
865.4873	-0.3506
865.65	-0
865.8126	0.0216
865.9752	0.1865
866.1378	0.2023
866.3004	0.611
866.4629	-1.5765
866.6254	-0
866.7879	0.0582
866.9504	-0
867.1129	-0.4696
867.2753	0.1661
867.4377	-0
867.6001	-0.0291
867.7625	-0.1733
867.9249	0.1497
868.0872	0.0944
868.2495	0.5183
868.4118	-0.092
868.5741	-0
868.7363	0.2326
868.8986	-0
869.0608	-0
869.223	-0.5482
869.3851	0.8702
869.5473	0.2126
869.7094	-0.0391
869.8715	-0
870.0336	0.1084
870.1957	-0
870.3577	0.5145
870.5197	-0.3221
870.6817	-0.5433
870.8437	0.0684
871.0057	0.1093
871.1676	0.1992
871.3295	0.133
871.4914	-0
871.6533	-0.3195
871.8151	0.1921
871.977	-0.4094
872.1388	-0.1995
872.3006	-0.4317
872.4623	-0
872.6241	0.5975
872.7858	-0.2469
872.9475	-0
873.1092	0.1004
873.2709	0.1319
873.4325	-1.6654
873.5941	-0
873.7557	0.1488
873.9173	-0
874.0789	0.0435
874.2404	-0
874.4019	-0.1504
874.5634	-0
874.7249	-0
874.8863	0.1996
875.0478	-0.1591
875.2092	-0
875.3706	-0
875.5319	-0
875.6933	-0
875.8546	0.1225
876.0159	0.8496
876.1772	-0.3407
876.3385	-0
876.4997	0.4581
876.6609	-0
876.8221	-0
876.9833	-0.1809
877.1445	0.3447
877.3056	-0.0649
877.4667	-0.7217
877.6278	-0
877.7889	0.1572
877.9499	1.513
878.111	-0.5174
878.272	0.2384
878.433	0.6736
878.5939	-0.0565
878.7549	0.8148
878.9158	-0
879.0767	-0.2932
879.2376	-0
879.3984	-0
879.5593	0.9911
879.7201	-1.6491
879.8809	-0
880.0417	-0.2667
880.2024	0.1723
880.3632	0.1607
880.5239	0.1377
880.6846	-0.4643
880.8452	0.2017
881.0059	-0
881.1665	-0.3419
881.3271	1.1718
881.4877	0.4166
881.6483	-1.2637
881.8088	-0
881.9693	-0.4508
882.1298	-0.4508
882.2903	-0.4508
