Data from D4ACN5uM440nmA_Absorbance_13-50-24-637.txt Node
Date: Fri Feb 21 13:50:24 GMT 2025
User: LASERRRRR
Spectrometer: FLMT03099
Trigger mode: 0
Integration Time (sec): 1.500000E-2
Scans to average: 1
Electric dark correction enabled: true
Nonlinearity correction enabled: false
Boxcar width: 0
XAxis mode: Wavelengths
Number of Pixels in Spectrum: 3648
>>>>>Begin Spectral Data<<<<<
179.3399	-0.5137
179.5586	-0.5137
179.7771	-0.5137
179.9957	0.1685
180.2143	-1.5297
180.4329	1.3411
180.6514	-0
180.8699	-0
181.0885	0.0872
181.307	-0.122
181.5255	0.2607
181.744	-0
181.9625	0.8833
182.181	-0
182.3994	-0.4632
182.6179	-0
182.8363	-0
183.0547	0.9686
183.2732	0.1879
183.4916	0.2337
183.71	0.2496
183.9284	0.5035
184.1467	0.5028
184.3651	0.0736
184.5835	0.3815
184.8018	0.3089
185.0201	0.2461
185.2385	0.4157
185.4568	0.1492
185.6751	0.2071
185.8934	0.3123
186.1117	0.1322
186.3299	0.3868
186.5482	0.1895
186.7664	0.239
186.9847	-0.0099
187.2029	0.6003
187.4211	-0.0454
187.6393	0.0535
187.8575	0.3444
188.0757	0.3314
188.2939	0.2079
188.512	0.4336
188.7302	0.1641
188.9483	0.132
189.1665	0.8764
189.3846	0.1792
189.6027	0.2009
189.8208	0.34
190.0389	0.1915
190.257	0.2144
190.475	-0.012
190.6931	0.1918
190.9111	0.1246
191.1292	0.1426
191.3472	0.1879
191.5652	0.1743
191.7832	0.1896
192.0012	0.1727
192.2192	0.288
192.4371	0.2421
192.6551	0.3337
192.873	0.2838
193.091	0.1983
193.3089	0.196
193.5268	0.3192
193.7447	0.0991
193.9626	0.1688
194.1805	0.218
194.3984	0.2093
194.6162	0.1682
194.8341	0.4145
195.0519	0.1904
195.2697	0.3526
195.4875	0.3409
195.7054	0.3242
195.9231	0.2295
196.1409	0.37
196.3587	0.3241
196.5765	0.3679
196.7942	0.3425
197.012	0.3363
197.2297	0.3928
197.4474	0.4549
197.6651	0.2884
197.8828	0.404
198.1005	0.4344
198.3182	0.4582
198.5358	0.3707
198.7535	0.3599
198.9711	0.4148
199.1888	0.3721
199.4064	0.4053
199.624	0.3898
199.8416	0.3746
200.0592	0.4242
200.2767	0.4549
200.4943	0.4889
200.7119	0.388
200.9294	0.4105
201.1469	0.4212
201.3645	0.4571
201.582	0.4061
201.7995	0.4022
202.017	0.4272
202.2344	0.4347
202.4519	0.3687
202.6694	0.4015
202.8868	0.3869
203.1042	0.4112
203.3217	0.3766
203.5391	0.4251
203.7565	0.3979
203.9739	0.372
204.1913	0.3427
204.4086	0.38
204.626	0.4059
204.8433	0.3692
205.0607	0.3717
205.278	0.3612
205.4953	0.3383
205.7126	0.3567
205.9299	0.3328
206.1472	0.3158
206.3644	0.3681
206.5817	0.3304
206.7989	0.3543
207.0162	0.2997
207.2334	0.334
207.4506	0.3313
207.6678	0.301
207.885	0.3058
208.1022	0.3122
208.3194	0.3001
208.5365	0.2887
208.7537	0.2896
208.9708	0.2983
209.1879	0.2997
209.405	0.2816
209.6222	0.2723
209.8392	0.2939
210.0563	0.2835
210.2734	0.2697
210.4905	0.2741
210.7075	0.278
210.9245	0.2746
211.1416	0.2564
211.3586	0.2733
211.5756	0.2552
211.7926	0.2711
212.0096	0.2637
212.2265	0.2674
212.4435	0.2791
212.6604	0.2629
212.8774	0.2547
213.0943	0.2536
213.3112	0.253
213.5281	0.2633
213.745	0.238
213.9619	0.2487
214.1788	0.2762
214.3956	0.2309
214.6125	0.2569
214.8293	0.2536
215.0461	0.2564
215.2629	0.2587
215.4798	0.2378
215.6965	0.2477
215.9133	0.2471
216.1301	0.2532
216.3469	0.2464
216.5636	0.2451
216.7803	0.2515
216.9971	0.254
217.2138	0.2365
217.4305	0.2498
217.6472	0.234
217.8639	0.2696
218.0805	0.2491
218.2972	0.2515
218.5138	0.266
218.7305	0.2518
218.9471	0.2551
219.1637	0.2685
219.3803	0.2679
219.5969	0.2462
219.8135	0.2659
220.0301	0.2596
220.2466	0.2472
220.4632	0.2482
220.6797	0.2622
220.8962	0.2624
221.1127	0.2774
221.3292	0.2586
221.5457	0.2889
221.7622	0.2634
221.9787	0.2831
222.1951	0.2864
222.4116	0.2866
222.628	0.2862
222.8444	0.2819
223.0608	0.276
223.2772	0.2901
223.4936	0.2903
223.71	0.293
223.9264	0.2853
224.1427	0.281
224.3591	0.2867
224.5754	0.2967
224.7917	0.2795
225.008	0.2961
225.2243	0.2976
225.4406	0.2972
225.6569	0.2977
225.8732	0.3039
226.0894	0.3034
226.3057	0.3188
226.5219	0.3113
226.7381	0.327
226.9543	0.3145
227.1705	0.3176
227.3867	0.3245
227.6029	0.3218
227.8191	0.3414
228.0352	0.3397
228.2513	0.3515
228.4675	0.3477
228.6836	0.3467
228.8997	0.3512
229.1158	0.3657
229.3319	0.3638
229.548	0.3528
229.764	0.3634
229.9801	0.3673
230.1961	0.3724
230.4121	0.3667
230.6282	0.3886
230.8442	0.3861
231.0602	0.3865
231.2761	0.3867
231.4921	0.3898
231.7081	0.3951
231.924	0.3914
232.14	0.406
232.3559	0.3992
232.5718	0.4025
232.7877	0.3999
233.0036	0.4154
233.2195	0.4114
233.4353	0.412
233.6512	0.4103
233.867	0.4254
234.0829	0.4293
234.2987	0.4237
234.5145	0.4305
234.7303	0.4347
234.9461	0.4324
235.1619	0.4499
235.3776	0.4344
235.5934	0.4336
235.8091	0.4435
236.0249	0.4381
236.2406	0.4557
236.4563	0.4444
236.672	0.4402
236.8877	0.4601
237.1034	0.4481
237.319	0.4536
237.5347	0.4487
237.7503	0.4532
237.966	0.4595
238.1816	0.459
238.3972	0.449
238.6128	0.4641
238.8284	0.4624
239.0439	0.4635
239.2595	0.4533
239.475	0.4586
239.6906	0.4638
239.9061	0.4659
240.1216	0.4536
240.3371	0.457
240.5526	0.465
240.7681	0.4684
240.9836	0.4502
241.199	0.4482
241.4145	0.4544
241.6299	0.4479
241.8453	0.4421
242.0607	0.4354
242.2761	0.4278
242.4915	0.4293
242.7069	0.4098
242.9223	0.4254
243.1376	0.4031
243.353	0.3997
243.5683	0.3989
243.7836	0.3895
243.9989	0.3744
244.2142	0.3728
244.4295	0.3727
244.6448	0.3595
244.86	0.3457
245.0753	0.3436
245.2905	0.3396
245.5057	0.34
245.721	0.3343
245.9362	0.3193
246.1514	0.3114
246.3665	0.3109
246.5817	0.2994
246.7969	0.294
247.012	0.2883
247.2271	0.2871
247.4423	0.2809
247.6574	0.2822
247.8725	0.2669
248.0876	0.2681
248.3026	0.2686
248.5177	0.2519
248.7328	0.2536
248.9478	0.2452
249.1628	0.253
249.3779	0.2402
249.5929	0.2387
249.8079	0.2326
250.0228	0.2286
250.2378	0.2325
250.4528	0.2262
250.6677	0.2211
250.8827	0.213
251.0976	0.2124
251.3125	0.2174
251.5274	0.2111
251.7423	0.2078
251.9572	0.2116
252.172	0.2098
252.3869	0.2045
252.6017	0.201
252.8166	0.1986
253.0314	0.2005
253.2462	0.1955
253.461	0.1936
253.6758	0.196
253.8906	0.1896
254.1053	0.1898
254.3201	0.1896
254.5348	0.1875
254.7496	0.1851
254.9643	0.1897
255.179	0.1855
255.3937	0.1914
255.6083	0.1941
255.823	0.1833
256.0377	0.1809
256.2523	0.187
256.467	0.1845
256.6816	0.1803
256.8962	0.184
257.1108	0.1758
257.3254	0.1805
257.54	0.1749
257.7545	0.18
257.9691	0.1852
258.1836	0.1791
258.3981	0.1784
258.6127	0.1753
258.8272	0.1776
259.0417	0.1726
259.2561	0.1732
259.4706	0.175
259.6851	0.1743
259.8995	0.1722
260.114	0.1767
260.3284	0.1735
260.5428	0.1763
260.7572	0.1792
260.9716	0.185
261.186	0.1746
261.4003	0.1743
261.6147	0.1736
261.829	0.1789
262.0433	0.1759
262.2577	0.177
262.472	0.1769
262.6863	0.1779
262.9005	0.177
263.1148	0.1709
263.3291	0.172
263.5433	0.1782
263.7576	0.1738
263.9718	0.1738
264.186	0.1812
264.4002	0.1818
264.6144	0.1821
264.8286	0.1783
265.0427	0.1824
265.2569	0.1812
265.471	0.1799
265.6851	0.1785
265.8993	0.1784
266.1134	0.1846
266.3275	0.1766
266.5415	0.1816
266.7556	0.1803
266.9697	0.1844
267.1837	0.1804
267.3978	0.1757
267.6118	0.175
267.8258	0.1792
268.0398	0.1766
268.2538	0.182
268.4677	0.178
268.6817	0.1754
268.8957	0.1693
269.1096	0.1668
269.3235	0.1723
269.5374	0.177
269.7514	0.1718
269.9652	0.1734
270.1791	0.1701
270.393	0.1712
270.6068	0.1701
270.8207	0.1682
271.0345	0.1712
271.2483	0.1689
271.4622	0.1719
271.676	0.1691
271.8897	0.1717
272.1035	0.1722
272.3173	0.1677
272.531	0.1672
272.7448	0.1682
272.9585	0.1582
273.1722	0.1609
273.3859	0.1655
273.5996	0.1682
273.8133	0.1679
274.0269	0.1657
274.2406	0.1695
274.4542	0.1657
274.6679	0.1694
274.8815	0.1765
275.0951	0.1724
275.3087	0.1735
275.5223	0.1704
275.7358	0.1739
275.9494	0.1714
276.1629	0.1774
276.3765	0.174
276.59	0.1692
276.8035	0.1676
277.017	0.1812
277.2305	0.1709
277.444	0.1762
277.6574	0.1695
277.8709	0.1841
278.0843	0.1752
278.2978	0.1782
278.5112	0.1727
278.7246	0.1664
278.938	0.1735
279.1513	0.1785
279.3647	0.1764
279.5781	0.1784
279.7914	0.1773
280.0047	0.1735
280.2181	0.1691
280.4314	0.1749
280.6447	0.182
280.8579	0.1755
281.0712	0.1767
281.2845	0.177
281.4977	0.1725
281.711	0.1791
281.9242	0.1803
282.1374	0.1834
282.3506	0.1792
282.5638	0.1801
282.7769	0.1725
282.9901	0.185
283.2033	0.1794
283.4164	0.1801
283.6295	0.1773
283.8426	0.1761
284.0557	0.1794
284.2688	0.1801
284.4819	0.1757
284.695	0.1859
284.908	0.1811
285.1211	0.1872
285.3341	0.1795
285.5471	0.1895
285.7601	0.1881
285.9731	0.1879
286.1861	0.1867
286.3991	0.1941
286.612	0.1896
286.825	0.1914
287.0379	0.1866
287.2508	0.1885
287.4637	0.1914
287.6766	0.1849
287.8895	0.1867
288.1024	0.1931
288.3152	0.1926
288.5281	0.1898
288.7409	0.1958
288.9538	0.1909
289.1666	0.1875
289.3794	0.1881
289.5922	0.1833
289.8049	0.1884
290.0177	0.193
290.2304	0.1951
290.4432	0.1953
290.6559	0.1892
290.8686	0.1952
291.0813	0.1967
291.294	0.1993
291.5067	0.1891
291.7194	0.1915
291.932	0.1877
292.1447	0.1954
292.3573	0.1972
292.5699	0.1983
292.7825	0.1923
292.9951	0.1924
293.2077	0.1918
293.4203	0.1958
293.6328	0.1934
293.8454	0.1877
294.0579	0.1928
294.2704	0.2003
294.4829	0.1963
294.6954	0.1967
294.9079	0.1883
295.1204	0.1936
295.3328	0.1936
295.5453	0.1944
295.7577	0.1963
295.9701	0.1988
296.1825	0.1953
296.3949	0.1904
296.6073	0.1955
296.8197	0.1986
297.0321	0.1966
297.2444	0.1921
297.4567	0.1953
297.6691	0.1925
297.8814	0.1938
298.0937	0.1943
298.306	0.1912
298.5182	0.2023
298.7305	0.1896
298.9428	0.1949
299.155	0.1927
299.3672	0.1955
299.5794	0.1977
299.7916	0.191
300.0038	0.1943
300.216	0.197
300.4282	0.1946
300.6403	0.1964
300.8525	0.1926
301.0646	0.194
301.2767	0.1956
301.4888	0.1946
301.7009	0.1948
301.913	0.1946
302.125	0.1938
302.3371	0.1982
302.5491	0.196
302.7612	0.2002
302.9732	0.1912
303.1852	0.1986
303.3972	0.1886
303.6092	0.1961
303.8211	0.1924
304.0331	0.1938
304.245	0.1885
304.457	0.1908
304.6689	0.1863
304.8808	0.1885
305.0927	0.1916
305.3046	0.1918
305.5164	0.1836
305.7283	0.1853
305.9401	0.1744
306.152	0.1793
306.3638	0.182
306.5756	0.1811
306.7874	0.1749
306.9992	0.1743
307.2109	0.1747
307.4227	0.1686
307.6344	0.1763
307.8462	0.1724
308.0579	0.1749
308.2696	0.1711
308.4813	0.1692
308.693	0.1591
308.9046	0.1638
309.1163	0.1601
309.328	0.162
309.5396	0.157
309.7512	0.1557
309.9628	0.1551
310.1744	0.1465
310.386	0.1477
310.5976	0.1484
310.8091	0.1547
311.0207	0.1461
311.2322	0.1396
311.4437	0.1428
311.6552	0.1493
311.8667	0.1443
312.0782	0.1421
312.2897	0.1419
312.5012	0.1336
312.7126	0.1367
312.924	0.1366
313.1355	0.1322
313.3469	0.1318
313.5583	0.1342
313.7696	0.131
313.981	0.1404
314.1924	0.1208
314.4037	0.1287
314.6151	0.127
314.8264	0.1306
315.0377	0.1273
315.249	0.1332
315.4603	0.1237
315.6716	0.1267
315.8828	0.1255
316.0941	0.1259
316.3053	0.1195
316.5165	0.1248
316.7277	0.1203
316.9389	0.1256
317.1501	0.1183
317.3613	0.1216
317.5724	0.12
317.7836	0.1218
317.9947	0.1169
318.2058	0.1196
318.417	0.1199
318.6281	0.1166
318.8391	0.1246
319.0502	0.1169
319.2613	0.118
319.4723	0.1176
319.6834	0.124
319.8944	0.12
320.1054	0.1214
320.3164	0.1149
320.5274	0.1222
320.7383	0.1221
320.9493	0.1223
321.1602	0.1209
321.3712	0.12
321.5821	0.1158
321.793	0.1272
322.0039	0.1247
322.2148	0.1196
322.4257	0.1214
322.6365	0.1162
322.8474	0.123
323.0582	0.1222
323.269	0.1208
323.4798	0.1171
323.6906	0.1167
323.9014	0.1239
324.1122	0.1186
324.3229	0.1255
324.5337	0.1289
324.7444	0.1266
324.9551	0.1275
325.1658	0.1189
325.3765	0.1263
325.5872	0.1244
325.7979	0.1195
326.0085	0.1179
326.2192	0.1217
326.4298	0.1236
326.6404	0.1244
326.851	0.1204
327.0616	0.1262
327.2722	0.1329
327.4828	0.1251
327.6933	0.1343
327.9039	0.1233
328.1144	0.1271
328.3249	0.1281
328.5354	0.126
328.7459	0.1298
328.9564	0.1263
329.1669	0.1329
329.3773	0.1311
329.5878	0.1252
329.7982	0.128
330.0086	0.1314
330.219	0.1249
330.4294	0.1327
330.6398	0.1316
330.8502	0.1336
331.0605	0.1305
331.2708	0.1295
331.4812	0.131
331.6915	0.1295
331.9018	0.1275
332.1121	0.1345
332.3224	0.1316
332.5326	0.1301
332.7429	0.1316
332.9531	0.1378
333.1633	0.1319
333.3735	0.1326
333.5837	0.1335
333.7939	0.1281
334.0041	0.1319
334.2143	0.1268
334.4244	0.1389
334.6346	0.1354
334.8447	0.1315
335.0548	0.1354
335.2649	0.1347
335.475	0.1362
335.685	0.1354
335.8951	0.1283
336.1051	0.1324
336.3152	0.1389
336.5252	0.1325
336.7352	0.133
336.9452	0.1352
337.1552	0.1366
337.3652	0.1347
337.5751	0.1388
337.7851	0.1329
337.995	0.1362
338.2049	0.1399
338.4148	0.1411
338.6247	0.1454
338.8346	0.1426
339.0445	0.1347
339.2543	0.139
339.4642	0.1359
339.674	0.1315
339.8838	0.1421
340.0936	0.1408
340.3034	0.1359
340.5132	0.1365
340.7229	0.1428
340.9327	0.1464
341.1424	0.1441
341.3522	0.1376
341.5619	0.1496
341.7716	0.1426
341.9813	0.1459
342.1909	0.1474
342.4006	0.1434
342.6102	0.1425
342.8199	0.1503
343.0295	0.1399
343.2391	0.1456
343.4487	0.1536
343.6583	0.1557
343.8679	0.1487
344.0774	0.148
344.287	0.1556
344.4965	0.1502
344.706	0.1551
344.9155	0.1478
345.125	0.1502
345.3345	0.1594
345.544	0.1508
345.7534	0.1523
345.9629	0.1601
346.1723	0.1592
346.3817	0.1555
346.5911	0.1589
346.8005	0.1639
347.0099	0.1615
347.2193	0.1618
347.4286	0.1654
347.638	0.1576
347.8473	0.1638
348.0566	0.1642
348.2659	0.1662
348.4752	0.1639
348.6845	0.1658
348.8937	0.1661
349.103	0.1621
349.3122	0.1685
349.5214	0.1708
349.7306	0.173
349.9398	0.1733
350.149	0.1669
350.3582	0.1679
350.5674	0.1683
350.7765	0.1757
350.9856	0.1641
351.1948	0.1762
351.4039	0.1766
351.613	0.1763
351.822	0.1769
352.0311	0.1766
352.2402	0.175
352.4492	0.169
352.6582	0.1783
352.8672	0.1767
353.0762	0.1789
353.2852	0.1757
353.4942	0.1838
353.7032	0.1809
353.9121	0.1862
354.1211	0.1804
354.33	0.1845
354.5389	0.179
354.7478	0.18
354.9567	0.1823
355.1655	0.1833
355.3744	0.1814
355.5833	0.1847
355.7921	0.1935
356.0009	0.1894
356.2097	0.1851
356.4185	0.1851
356.6273	0.1863
356.8361	0.1883
357.0448	0.1917
357.2536	0.1835
357.4623	0.1947
357.671	0.197
357.8797	0.1926
358.0884	0.187
358.2971	0.1862
358.5057	0.2022
358.7144	0.1977
358.923	0.1983
359.1316	0.2016
359.3402	0.1983
359.5488	0.201
359.7574	0.2008
359.966	0.2075
360.1746	0.2034
360.3831	0.2112
360.5916	0.2083
360.8002	0.2123
361.0087	0.2044
361.2172	0.2076
361.4256	0.2088
361.6341	0.2087
361.8426	0.2096
362.051	0.2181
362.2594	0.215
362.4678	0.2152
362.6762	0.2207
362.8846	0.2153
363.093	0.2168
363.3014	0.2188
363.5097	0.2211
363.718	0.2243
363.9264	0.2329
364.1347	0.2261
364.343	0.2265
364.5513	0.2225
364.7595	0.2381
364.9678	0.2251
365.176	0.2339
365.3842	0.2354
365.5925	0.2317
365.8007	0.2319
366.0089	0.2381
366.217	0.2366
366.4252	0.2271
366.6333	0.2373
366.8415	0.236
367.0496	0.2366
367.2577	0.2398
367.4658	0.246
367.6739	0.2357
367.882	0.2454
368.09	0.2452
368.2981	0.2439
368.5061	0.2401
368.7141	0.2471
368.9221	0.2527
369.1301	0.2527
369.3381	0.2585
369.5461	0.2599
369.754	0.2543
369.962	0.246
370.1699	0.2535
370.3778	0.2609
370.5857	0.2554
370.7936	0.2561
371.0015	0.26
371.2093	0.2549
371.4172	0.253
371.625	0.255
371.8328	0.2578
372.0406	0.2659
372.2484	0.2678
372.4562	0.2627
372.664	0.2612
372.8717	0.2684
373.0795	0.2733
373.2872	0.2717
373.4949	0.2685
373.7026	0.2652
373.9103	0.267
374.118	0.2669
374.3256	0.2748
374.5333	0.2731
374.7409	0.2639
374.9485	0.2737
375.1561	0.2821
375.3637	0.2723
375.5713	0.2832
375.7789	0.2741
375.9864	0.28
376.194	0.2862
376.4015	0.2763
376.609	0.2809
376.8165	0.2833
377.024	0.2792
377.2315	0.2853
377.4389	0.2838
377.6464	0.2953
377.8538	0.2878
378.0612	0.2939
378.2686	0.2921
378.476	0.2986
378.6834	0.2897
378.8908	0.3021
379.0981	0.2871
379.3055	0.2977
379.5128	0.2876
379.7201	0.2914
379.9274	0.2971
380.1347	0.3021
380.342	0.2956
380.5492	0.3016
380.7565	0.3018
380.9637	0.3035
381.1709	0.2916
381.3781	0.2987
381.5853	0.2994
381.7925	0.2982
381.9997	0.3084
382.2068	0.2982
382.4139	0.3015
382.6211	0.31
382.8282	0.3134
383.0353	0.312
383.2424	0.3045
383.4494	0.3111
383.6565	0.3089
383.8635	0.3078
384.0706	0.3095
384.2776	0.3073
384.4846	0.3154
384.6916	0.3048
384.8986	0.31
385.1055	0.3127
385.3125	0.3015
385.5194	0.3147
385.7263	0.3064
385.9333	0.3165
386.1402	0.3183
386.347	0.2971
386.5539	0.3191
386.7608	0.3005
386.9676	0.3077
387.1744	0.3086
387.3813	0.3026
387.5881	0.3076
387.7948	0.3204
388.0016	0.3172
388.2084	0.3102
388.4151	0.3128
388.6219	0.2982
388.8286	0.3056
389.0353	0.3054
389.242	0.3023
389.4487	0.3035
389.6553	0.3
389.862	0.2938
390.0686	0.3085
390.2753	0.3095
390.4819	0.3036
390.6885	0.3075
390.8951	0.3018
391.1016	0.3009
391.3082	0.2981
391.5147	0.2981
391.7213	0.3014
391.9278	0.2857
392.1343	0.2941
392.3408	0.2915
392.5473	0.2914
392.7537	0.2952
392.9602	0.2902
393.1666	0.2868
393.373	0.2898
393.5794	0.2874
393.7858	0.2897
393.9922	0.2881
394.1986	0.2887
394.4049	0.281
394.6113	0.2894
394.8176	0.2768
395.0239	0.274
395.2302	0.2749
395.4365	0.2837
395.6428	0.2729
395.8491	0.2754
396.0553	0.2754
396.2615	0.2693
396.4678	0.2693
396.674	0.2618
396.8802	0.2661
397.0863	0.27
397.2925	0.2702
397.4987	0.2693
397.7048	0.2723
397.9109	0.2685
398.117	0.2677
398.3231	0.2651
398.5292	0.2521
398.7353	0.2642
398.9413	0.2639
399.1474	0.2745
399.3534	0.2656
399.5594	0.2562
399.7654	0.2626
399.9714	0.2637
400.1774	0.264
400.3833	0.2707
400.5893	0.266
400.7952	0.2663
401.0011	0.2636
401.207	0.2665
401.4129	0.2687
401.6188	0.2662
401.8247	0.2696
402.0305	0.2625
402.2364	0.2675
402.4422	0.2655
402.648	0.2706
402.8538	0.2615
403.0596	0.2524
403.2654	0.2662
403.4711	0.2624
403.6768	0.2692
403.8826	0.2746
404.0883	0.2561
404.294	0.267
404.4997	0.2559
404.7054	0.2732
404.911	0.2714
405.1167	0.2673
405.3223	0.2623
405.5279	0.2702
405.7335	0.2573
405.9391	0.2567
406.1447	0.268
406.3502	0.2538
406.5558	0.2627
406.7613	0.2647
406.9668	0.2695
407.1724	0.2593
407.3778	0.2568
407.5833	0.2493
407.7888	0.2701
407.9942	0.2618
408.1997	0.2624
408.4051	0.2634
408.6105	0.2548
408.8159	0.2576
409.0213	0.265
409.2267	0.2623
409.432	0.2666
409.6374	0.2765
409.8427	0.2668
410.048	0.266
410.2533	0.2625
410.4586	0.2606
410.6639	0.2597
410.8691	0.2521
411.0744	0.2601
411.2796	0.2573
411.4848	0.265
411.69	0.2569
411.8952	0.2724
412.1004	0.2728
412.3056	0.2595
412.5107	0.2658
412.7158	0.267
412.921	0.2572
413.1261	0.2612
413.3312	0.259
413.5362	0.2737
413.7413	0.2617
413.9464	0.2545
414.1514	0.2651
414.3564	0.2478
414.5614	0.2518
414.7664	0.2524
414.9714	0.2552
415.1764	0.2644
415.3813	0.2556
415.5863	0.2625
415.7912	0.2597
415.9961	0.2717
416.201	0.2764
416.4059	0.2584
416.6108	0.2569
416.8156	0.2531
417.0205	0.2675
417.2253	0.2548
417.4301	0.2689
417.6349	0.2497
417.8397	0.2489
418.0445	0.2388
418.2492	0.249
418.454	0.2529
418.6587	0.2512
418.8634	0.2517
419.0681	0.2552
419.2728	0.2512
419.4775	0.2585
419.6822	0.2465
419.8868	0.2461
420.0915	0.2418
420.2961	0.2372
420.5007	0.2448
420.7053	0.244
420.9099	0.2387
421.1144	0.2391
421.319	0.2424
421.5235	0.2315
421.728	0.2645
421.9325	0.2332
422.137	0.2458
422.3415	0.2347
422.546	0.2316
422.7504	0.2386
422.9549	0.2513
423.1593	0.2239
423.3637	0.2323
423.5681	0.2399
423.7725	0.2375
423.9769	0.2374
424.1812	0.2312
424.3856	0.2211
424.5899	0.2239
424.7942	0.2314
424.9985	0.2313
425.2028	0.238
425.4071	0.239
425.6113	0.236
425.8156	0.2194
426.0198	0.225
426.224	0.2284
426.4282	0.2204
426.6324	0.2176
426.8366	0.2209
427.0407	0.2152
427.2449	0.2138
427.449	0.2114
427.6531	0.2253
427.8572	0.2116
428.0613	0.2158
428.2654	0.21
428.4694	0.1975
428.6735	0.2084
428.8775	0.2087
429.0815	0.2033
429.2855	0.2031
429.4895	0.2019
429.6935	0.1997
429.8975	0.1907
430.1014	0.1971
430.3053	0.1994
430.5093	0.1933
430.7132	0.1876
430.9171	0.1921
431.1209	0.1937
431.3248	0.1816
431.5286	0.1872
431.7325	0.2011
431.9363	0.183
432.1401	0.1809
432.3439	0.1819
432.5477	0.1732
432.7514	0.1779
432.9552	0.1819
433.1589	0.168
433.3627	0.178
433.5664	0.1677
433.7701	0.1737
433.9737	0.1713
434.1774	0.1631
434.3811	0.1543
434.5847	0.158
434.7883	0.163
434.9919	0.146
435.1955	0.1633
435.3991	0.1591
435.6027	0.155
435.8062	0.1697
436.0098	0.1447
436.2133	0.1468
436.4168	0.1418
436.6203	0.1395
436.8238	0.1422
437.0272	0.143
437.2307	0.1382
437.4341	0.1483
437.6375	0.142
437.841	0.1345
438.0443	0.1391
438.2477	0.1242
438.4511	0.1219
438.6545	0.128
438.8578	0.1251
439.0611	0.1308
439.2644	0.1256
439.4677	0.1262
439.671	0.1145
439.8743	0.1195
440.0775	0.1176
440.2808	0.1102
440.484	0.1141
440.6872	0.1117
440.8904	0.1032
441.0936	0.1085
441.2967	0.1016
441.4999	0.1014
441.703	0.1023
441.9062	0.1001
442.1093	0.1071
442.3124	0.0945
442.5155	0.0977
442.7185	0.0916
442.9216	0.0926
443.1246	0.0977
443.3276	0.0977
443.5307	0.0854
443.7337	0.0846
443.9366	0.083
444.1396	0.0861
444.3426	0.0847
444.5455	0.0859
444.7484	0.0836
444.9513	0.076
445.1542	0.0833
445.3571	0.0798
445.56	0.068
445.7628	0.0668
445.9657	0.0728
446.1685	0.0822
446.3713	0.0705
446.5741	0.0766
446.7769	0.0756
446.9797	0.0739
447.1824	0.0705
447.3852	0.0532
447.5879	0.0644
447.7906	0.0513
447.9933	0.0603
448.196	0.0614
448.3986	0.0563
448.6013	0.0476
448.8039	0.065
449.0066	0.0654
449.2092	0.0588
449.4118	0.0483
449.6143	0.0537
449.8169	0.0548
450.0195	0.0532
450.222	0.0552
450.4245	0.0487
450.627	0.0511
450.8295	0.0443
451.032	0.0565
451.2345	0.042
451.4369	0.0483
451.6394	0.0436
451.8418	0.0426
452.0442	0.0457
452.2466	0.0336
452.449	0.0408
452.6513	0.0385
452.8537	0.0383
453.056	0.0443
453.2583	0.0345
453.4607	0.0275
453.663	0.0294
453.8652	0.0263
454.0675	0.0375
454.2697	0.0343
454.472	0.0331
454.6742	0.0432
454.8764	0.048
455.0786	0.0321
455.2808	0.0183
455.4829	0.0447
455.6851	0.021
455.8872	0.022
456.0893	0.0251
456.2915	0.0279
456.4935	0.0365
456.6956	0.0274
456.8977	0.0169
457.0997	0.0365
457.3018	0.0254
457.5038	0.0264
457.7058	0.0281
457.9078	0.0302
458.1098	0.037
458.3117	0.0313
458.5137	0.0186
458.7156	0.0256
458.9175	0.0233
459.1194	0.0211
459.3213	0.0186
459.5232	0.0283
459.725	0.0284
459.9269	0.0318
460.1287	0.0251
460.3305	0.0294
460.5323	0.0237
460.7341	0.022
460.9359	0.0085
461.1376	0.0212
461.3394	0.0188
461.5411	0.021
461.7428	0.0249
461.9445	0.0147
462.1462	0.0212
462.3479	0.009
462.5495	0.0199
462.7512	0.022
462.9528	0.0113
463.1544	0.017
463.356	0.0077
463.5576	0.0214
463.7592	0.0083
463.9607	0.0142
464.1623	0.0085
464.3638	0.0092
464.5653	0.0074
464.7668	0.0142
464.9683	0.0187
465.1697	0.0136
465.3712	0.0072
465.5726	0.014
465.7741	0.0152
465.9755	0.0161
466.1769	0.0116
466.3782	0.0089
466.5796	0.0164
466.7809	0.0052
466.9823	0.0174
467.1836	0.0128
467.3849	0.0146
467.5862	0.0033
467.7875	0.0053
467.9887	0.0077
468.19	0.0084
468.3912	0.0238
468.5924	0.0098
468.7936	0.0137
468.9948	0.0042
469.196	0.0042
469.3972	0.0017
469.5983	0.0067
469.7994	0.0191
470.0006	0.0118
470.2017	0.0093
470.4027	0.0164
470.6038	0.0106
470.8049	0.0104
471.0059	0.013
471.2069	0.0152
471.408	0.0154
471.6089	0.0082
471.8099	0.0164
472.0109	0.0189
472.2119	0.0211
472.4128	0.0126
472.6137	0.0065
472.8146	0.0121
473.0155	0.0153
473.2164	0.0093
473.4173	-0.0019
473.6181	0.0051
473.819	0.0088
474.0198	-0.0018
474.2206	0.0016
474.4214	0.0085
474.6222	-0.0025
474.8229	0.0038
475.0237	0.0108
475.2244	0.0117
475.4251	0.01
475.6258	0.0059
475.8265	0.0086
476.0272	0.0064
476.2278	0.0062
476.4285	0.0074
476.6291	0.0095
476.8297	0.0098
477.0303	0.002
477.2309	-0.0005
477.4315	0.0125
477.632	-0.0006
477.8326	0.0072
478.0331	0.0157
478.2336	0.0002
478.4341	0.0071
478.6346	0.0036
478.8351	0.0017
479.0355	0.0137
479.236	0.0175
479.4364	0.0075
479.6368	0.0009
479.8372	0.0079
480.0376	0.0066
480.2379	0.0129
480.4383	0.0135
480.6386	0.0052
480.8389	0.0071
481.0392	0.004
481.2395	0.0119
481.4398	0.0133
481.6401	0.0039
481.8403	0.0019
482.0405	0.0029
482.2408	0.0123
482.441	0.0172
482.6411	0.0122
482.8413	0.0054
483.0415	0.0129
483.2416	0.0051
483.4417	0.011
483.6419	0.0007
483.8419	0.0074
484.042	0.0059
484.2421	0.0017
484.4422	0.004
484.6422	0.0074
484.8422	0.0082
485.0422	0.0047
485.2422	0.0017
485.4422	0.007
485.6422	0.0066
485.8421	0.0037
486.042	0.012
486.242	-0.0005
486.4419	0.0085
486.6417	0.0019
486.8416	0.0056
487.0415	0.0025
487.2413	0.0006
487.4411	0.0011
487.641	0.0055
487.8408	0.0032
488.0405	0.0093
488.2403	0.0065
488.4401	0.0048
488.6398	0.0109
488.8395	0.0038
489.0392	0.0099
489.2389	0.008
489.4386	-0.0005
489.6383	0.0136
489.8379	0.0003
490.0376	0.0047
490.2372	0.0012
490.4368	0.0005
490.6364	-0.0071
490.836	0.0009
491.0355	0.0015
491.2351	-0.001
491.4346	0.0053
491.6341	-0.0009
491.8336	0.006
492.0331	0.0062
492.2326	0.0088
492.432	0.0078
492.6315	0.0114
492.8309	0.011
493.0303	0.0052
493.2297	0.0113
493.4291	-0.0015
493.6284	0.0085
493.8278	-0.0062
494.0271	0.0014
494.2264	0.0022
494.4257	0.006
494.625	0.0009
494.8243	-0.0013
495.0236	0.0061
495.2228	0.0111
495.422	0.0065
495.6213	0.008
495.8205	0.0051
496.0196	0.0079
496.2188	0.0053
496.418	0.0057
496.6171	0.004
496.8162	0.0048
497.0153	0.0165
497.2144	0.0032
497.4135	0.0125
497.6126	0.0085
497.8116	-0.0001
498.0107	0.0081
498.2097	0.0022
498.4087	0.0097
498.6077	-0.0047
498.8067	0.0006
499.0056	0.0094
499.2046	0.0099
499.4035	0.0092
499.6024	0.0021
499.8013	0.0151
500.0002	0.0072
500.199	0.0153
500.3979	0.0015
500.5967	0.0085
500.7956	0.0042
500.9944	0.0102
501.1932	0.0145
501.3919	0.0041
501.5907	0.0138
501.7895	0.0029
501.9882	0.0038
502.1869	0.0074
502.3856	0.0092
502.5843	-0.001
502.783	0.0035
502.9816	0.0097
503.1803	0.007
503.3789	0.0164
503.5775	0.0077
503.7761	0.0038
503.9747	0.0093
504.1732	-0.0005
504.3718	0.0183
504.5703	0.0031
504.7689	0.0002
504.9674	0.0034
505.1658	0.0032
505.3643	0.0103
505.5628	0.0095
505.7612	0.0167
505.9597	-0.0007
506.1581	0.0028
506.3565	0.0067
506.5549	0.0008
506.7532	-0.005
506.9516	0.0047
507.1499	0.003
507.3482	0.0044
507.5465	0.0102
507.7448	0.008
507.9431	0.0095
508.1414	0.0027
508.3396	0.0066
508.5379	0.0038
508.7361	0.0038
508.9343	0.0051
509.1325	0.0064
509.3306	0.0007
509.5288	-0.0042
509.7269	0.0054
509.9251	0.0113
510.1232	0.0032
510.3213	0.0044
510.5193	0.0094
510.7174	-0.0002
510.9154	0.0038
511.1135	0.005
511.3115	0.0019
511.5095	0.001
511.7075	0.0089
511.9055	0.0177
512.1034	0.0034
512.3014	0.0091
512.4993	0.0046
512.6972	0.0065
512.8951	0.0052
513.093	0.0037
513.2908	0.0202
513.4887	0.0114
513.6865	0.0059
513.8844	0.0092
514.0822	0.0046
514.2799	-0.0001
514.4777	0.0018
514.6755	-0.0013
514.8732	0.0012
515.0709	0.0079
515.2687	0.0041
515.4664	0.0084
515.664	0.0177
515.8617	0.0078
516.0594	0.0078
516.257	0.0032
516.4546	0.0149
516.6522	0.0015
516.8498	0.0048
517.0474	-0.003
517.2449	0.01
517.4425	0.0047
517.64	-0.0022
517.8375	0.0112
518.035	-0.0104
518.2325	0.0079
518.43	0.0032
518.6274	0.0086
518.8249	-0.0026
519.0223	0.0208
519.2197	0.0062
519.4171	-0.0007
519.6145	0.0077
519.8118	-0.0117
520.0092	0.0018
520.2065	0.0061
520.4038	0.0004
520.6011	0.0103
520.7984	0.0069
520.9956	0.012
521.1929	0.0073
521.3901	0.0213
521.5874	0.0182
521.7846	0.0073
521.9818	0.0025
522.1789	-0.0038
522.3761	0.0182
522.5732	0.0079
522.7704	-0.0078
522.9675	-0.0052
523.1646	-0.0018
523.3617	0.0188
523.5587	0.0072
523.7558	-0.0009
523.9528	0.0131
524.1498	-0.0014
524.3468	-0.0057
524.5438	0.0071
524.7408	0.0034
524.9378	0.0104
525.1347	0.0053
525.3316	0.0079
525.5285	0.0023
525.7254	0.0088
525.9223	0.0233
526.1192	0.0005
526.316	0.007
526.5129	0.0067
526.7097	-0.0001
526.9065	0.0076
527.1033	0.0041
527.3	0.0078
527.4968	0.0089
527.6935	0.0009
527.8903	0.0044
528.087	-0.0034
528.2837	0.017
528.4804	0.0048
528.677	0.0062
528.8737	0.0094
529.0703	0.0104
529.2669	0.016
529.4635	-0.0002
529.6601	-0.0115
529.8567	0.0024
530.0532	0.0144
530.2498	0.0023
530.4463	-0.0131
530.6428	0.0063
530.8393	0.0086
531.0358	0.0071
531.2322	0.0089
531.4287	0.0059
531.6251	-0.001
531.8215	0.0016
532.0179	0.0095
532.2143	0.0025
532.4107	0.0099
532.607	0.0074
532.8034	0.0035
532.9997	0.0002
533.196	0.0038
533.3923	0.0102
533.5886	0.01
533.7848	-0.0045
533.9811	0.0103
534.1773	0.004
534.3735	0.0106
534.5697	0.0063
534.7659	0.0126
534.9621	0.0111
535.1582	0.0024
535.3544	0.0043
535.5505	0.0094
535.7466	0.0164
535.9427	0.0091
536.1387	0.0101
536.3348	0.0031
536.5308	0.0072
536.7269	-0.0016
536.9229	0.0002
537.1189	0.0096
537.3148	0.0045
537.5108	0.0025
537.7068	0.0191
537.9027	-0
538.0986	0.0039
538.2945	-0.0012
538.4904	0.0062
538.6863	0.0154
538.8821	0.0102
539.078	0.0102
539.2738	0.0083
539.4696	-0.004
539.6654	0.0104
539.8611	0.0072
540.0569	-0.0017
540.2526	0.0134
540.4484	-0.0068
540.6441	0.0052
540.8398	0.015
541.0355	0.0026
541.2311	-0.0056
541.4268	0.0134
541.6224	0.02
541.818	0.0077
542.0136	0.0126
542.2092	0.0174
542.4048	0.0046
542.6003	0.0059
542.7959	0.0041
542.9914	-0.0001
543.1869	0.0083
543.3824	0.005
543.5779	0.011
543.7734	0.0179
543.9688	0.0092
544.1642	0.008
544.3596	0.0062
544.555	0.0038
544.7504	0.0096
544.9458	0.0072
545.1411	0.0064
545.3365	0.0106
545.5318	-0.0008
545.7271	0.012
545.9224	0.0082
546.1177	0.0089
546.3129	0.0051
546.5081	-0.0009
546.7034	0.0047
546.8986	0.0036
547.0938	0.0149
547.289	0.0168
547.4841	0.0155
547.6793	0.0042
547.8744	0.0178
548.0695	0.0014
548.2646	0.0096
548.4597	0.0052
548.6548	0.0118
548.8498	0.0114
549.0448	-0.0002
549.2399	0.0165
549.4349	0.012
549.6298	0.0104
549.8248	-0.0011
550.0198	0.0002
550.2147	0.0126
550.4096	-0.0088
550.6045	0.0068
550.7994	0.0062
550.9943	0.0124
551.1892	-0.0103
551.384	0.0177
551.5788	0.006
551.7737	0.0084
551.9685	0.008
552.1632	0.0006
552.358	0.0001
552.5528	0.0041
552.7475	0.0107
552.9422	0.0114
553.1369	0.0159
553.3316	0.0051
553.5263	0.0093
553.7209	0.0044
553.9156	0.0152
554.1102	0.0011
554.3048	-0.0027
554.4994	0.006
554.694	0.0086
554.8885	0.0007
555.0831	0.0145
555.2776	0.0069
555.4721	0.0183
555.6666	0.0065
555.8611	0.0051
556.0555	0.0014
556.25	0.0109
556.4444	0.0016
556.6388	0.0009
556.8332	0.0138
557.0276	0.0034
557.222	0.0035
557.4163	-0.0016
557.6107	0.003
557.805	-0.0007
557.9993	0.0072
558.1936	-0.0024
558.3879	0.0149
558.5821	0.0005
558.7764	-0.0052
558.9706	0.0073
559.1648	0.006
559.359	0.003
559.5532	-0.0037
559.7473	0.0054
559.9415	-0.0044
560.1356	0.0153
560.3297	0.0009
560.5238	0.0131
560.7179	0.0039
560.9119	0.0042
561.106	0.0045
561.3	0.0075
561.494	-0.0043
561.688	0.0044
561.882	-0.0014
562.076	0.0077
562.2699	0.0146
562.4639	0.0165
562.6578	0.0132
562.8517	0.0119
563.0456	0.006
563.2395	0.0022
563.4333	0.0031
563.6272	0.0065
563.821	0.0036
564.0148	0.0121
564.2086	0.013
564.4024	0.016
564.5961	0.0096
564.7899	0.017
564.9836	0.0047
565.1773	0.015
565.371	0.0062
565.5647	0.0064
565.7584	0.0161
565.952	-0.0062
566.1456	0.0027
566.3393	0.007
566.5329	-0.0011
566.7264	0.0167
566.92	0.0093
567.1136	0.0036
567.3071	-0.0001
567.5006	0.0052
567.6941	0.0051
567.8876	0.0012
568.0811	0.0252
568.2745	0.0025
568.468	0.0128
568.6614	0.0066
568.8548	0.0133
569.0482	0.0032
569.2416	0.0031
569.4349	0.0009
569.6283	0.0082
569.8216	0.0108
570.0149	0.0028
570.2082	0.0111
570.4015	0.0056
570.5947	0.0032
570.788	0.0048
570.9812	0.0042
571.1744	0.0048
571.3676	0.0076
571.5608	0.0062
571.754	0.0151
571.9471	0.0088
572.1402	0.0024
572.3333	0.0073
572.5264	0.0066
572.7195	0.0049
572.9126	0.0059
573.1057	0.0039
573.2987	0.0058
573.4917	0.0045
573.6847	0.0048
573.8777	0.0071
574.0707	0.0067
574.2636	0.0074
574.4566	0.004
574.6495	0.005
574.8424	0.0073
575.0353	0.0087
575.2281	0.0085
575.421	-0.0013
575.6138	0.0027
575.8067	0.008
575.9995	0.0066
576.1923	0.0081
576.385	0.0088
576.5778	0.0108
576.7706	0.0071
576.9633	0.0048
577.156	-0.0022
577.3487	0.0045
577.5414	0.0029
577.734	-0.0006
577.9267	0.0055
578.1193	0.0072
578.3119	0.0028
578.5045	0.0046
578.6971	0.0008
578.8897	-0
579.0822	0.0072
579.2747	0.0017
579.4673	0.0051
579.6598	0.0064
579.8522	0.0021
580.0447	0.0084
580.2372	0.0103
580.4296	0.0077
580.622	0.0063
580.8144	0.0062
581.0068	0.0027
581.1992	0.0063
581.3915	0.0001
581.5839	0.003
581.7762	0.0024
581.9685	0.0023
582.1608	0.0058
582.353	0.0078
582.5453	0.0078
582.7375	0.0042
582.9298	-0.0012
583.122	0.003
583.3142	0.0083
583.5063	0.0068
583.6985	0.0041
583.8906	-0.0004
584.0827	0.005
584.2749	0.0018
584.4669	0.0044
584.659	0.0079
584.8511	0.0067
585.0431	0.0066
585.2352	0.0009
585.4272	0.0038
585.6192	0.0059
585.8111	0.0028
586.0031	0.0072
586.195	0.0016
586.387	0.0004
586.5789	0.007
586.7708	0.0077
586.9627	0.0061
587.1545	0.004
587.3464	0.008
587.5382	0.0033
587.73	0.0092
587.9218	0.0027
588.1136	0.0029
588.3053	0.0023
588.4971	0.0056
588.6888	0.0018
588.8805	0.0051
589.0722	0.0082
589.2639	0.0047
589.4556	0.0061
589.6472	0.0081
589.8389	0.0046
590.0305	0.0065
590.2221	0.0116
590.4137	0.003
590.6052	0.0065
590.7968	0.0053
590.9883	0.0076
591.1798	-0.0002
591.3713	0.0051
591.5628	0.009
591.7543	-0.001
591.9458	0.0021
592.1372	0.0088
592.3286	0.003
592.52	0.0066
592.7114	0.0055
592.9028	0.0096
593.0941	0.0089
593.2855	0.0026
593.4768	0.0108
593.6681	0.0085
593.8594	0.0051
594.0506	0.0054
594.2419	0.0039
594.4331	0.0052
594.6244	-0.0006
594.8156	0.0066
595.0067	0.0016
595.1979	0.0008
595.3891	0.0025
595.5802	0.0038
595.7713	0.0067
595.9624	0.0076
596.1535	0.0075
596.3446	0.0039
596.5357	0.0026
596.7267	-0.0007
596.9177	0.0022
597.1087	0.0003
597.2997	0.0054
597.4907	0.0056
597.6817	0.0037
597.8726	0.0073
598.0635	0.001
598.2544	0.0136
598.4453	0.0035
598.6362	0.0026
598.827	0.0025
599.0179	0.0087
599.2087	0.0112
599.3995	0.0093
599.5903	0.0061
599.7811	0.0158
599.9718	0.0043
600.1626	0.0031
600.3533	0.0061
600.544	0.0057
600.7347	0.0047
600.9254	0.0062
601.116	0.0062
601.3067	0.0019
601.4973	0.0016
601.6879	0.002
601.8785	0.0122
602.0691	-0.0012
602.2596	0.0076
602.4502	0.0051
602.6407	0.0032
602.8312	0.0086
603.0217	0.0011
603.2122	0.0031
603.4027	0.0067
603.5931	0.0004
603.7835	0.0105
603.9739	0.0002
604.1643	0.0082
604.3547	0.0061
604.5451	0.0046
604.7354	-0.0017
604.9257	0.0007
605.116	0.0003
605.3063	0.0088
605.4966	0.0043
605.6869	0.0102
605.8771	0.0058
606.0673	0.0043
606.2575	-0.0016
606.4477	0.0051
606.6379	0.0032
606.8281	0.0036
607.0182	0.0062
607.2083	0.006
607.3985	0.0041
607.5885	0.0011
607.7786	0.0086
607.9687	0.0054
608.1587	0.0084
608.3488	0.012
608.5388	0.0026
608.7288	-0.0029
608.9187	0.0045
609.1087	0.0059
609.2986	0.0092
609.4886	0.0053
609.6785	0.0088
609.8684	0.0047
610.0582	0.0001
610.2481	-0.0044
610.4379	0.0076
610.6278	0.0121
610.8176	0.0147
611.0074	0.0039
611.1971	0.0043
611.3869	0.0025
611.5766	-0.0055
611.7664	0.0029
611.9561	0.0066
612.1458	0.0103
612.3354	0.0048
612.5251	0.0064
612.7147	0.0116
612.9044	-0.0025
613.094	0.0086
613.2836	0.0056
613.4731	0.0035
613.6627	0.0126
613.8522	0.0117
614.0417	0.0075
614.2313	0.005
614.4207	0.0099
614.6102	0.0164
614.7997	0.008
614.9891	0.0012
615.1785	0.0073
615.3679	0.0048
615.5573	0.0018
615.7467	-0.0029
615.9361	0.008
616.1254	0.0064
616.3147	0.0004
616.504	0.0053
616.6933	0.0106
616.8826	0.0018
617.0718	0.0121
617.2611	0.0119
617.4503	0.0019
617.6395	0.0036
617.8287	0.0035
618.0179	0.0025
618.207	0.0149
618.3961	0.0041
618.5853	0.0097
618.7744	0.0061
618.9634	0.0111
619.1525	0.0108
619.3416	0.0041
619.5306	0.009
619.7196	0.0096
619.9086	0.0011
620.0976	-0.0027
620.2866	0.01
620.4755	0.0057
620.6645	0.0064
620.8534	0.0038
621.0423	0.0061
621.2312	-0.0019
621.42	-0.0039
621.6089	0.001
621.7977	0.0066
621.9865	0.0098
622.1753	-0.0002
622.3641	0.0069
622.5529	0.0048
622.7416	-0.0007
622.9303	0.0012
623.1191	0.0095
623.3078	0.0043
623.4964	0.0042
623.6851	0.009
623.8737	0.0024
624.0624	-0.0071
624.251	0.0013
624.4396	-0.0002
624.6282	0.011
624.8167	0.0017
625.0053	0.0074
625.1938	0.0059
625.3823	0.0171
625.5708	-0.0128
625.7593	-0.0048
625.9477	0.0042
626.1362	0.0067
626.3246	0.0058
626.513	0.0129
626.7014	0.0183
626.8898	0.0074
627.0781	0.0057
627.2665	0.01
627.4548	0.0023
627.6431	0.0094
627.8314	0.013
628.0197	0.0203
628.2079	0.001
628.3962	0.0088
628.5844	0.0118
628.7726	0.0066
628.9608	0.0089
629.1489	-0.0028
629.3371	-0.009
629.5252	0.0151
629.7134	0.0001
629.9015	0.0154
630.0895	-0.0097
630.2776	0.003
630.4657	0.0082
630.6537	0.0155
630.8417	0.0033
631.0297	0.0109
631.2177	-0.0044
631.4057	0.0106
631.5936	0.0019
631.7815	0.0113
631.9695	0.0203
632.1574	0.0046
632.3452	0.0108
632.5331	0.0135
632.7209	0.0029
632.9088	0.0026
633.0966	0.0098
633.2844	-0.0003
633.4722	0.0098
633.6599	0.0148
633.8477	0.0133
634.0354	0.0122
634.2231	0.0046
634.4108	-0.0031
634.5985	-0.001
634.7861	0.0043
634.9738	0.0097
635.1614	0.0129
635.349	-0.0025
635.5366	0.0015
635.7242	0.0055
635.9117	0.0007
636.0993	0.0036
636.2868	-0.0019
636.4743	0.0017
636.6618	-0.0079
636.8492	0.0085
637.0367	0.0015
637.2241	0.0038
637.4115	0.0153
637.5989	0.0206
637.7863	0.0326
637.9737	0.016
638.161	0.0174
638.3484	0.0013
638.5357	0.0048
638.723	0.0384
638.9103	-0.0086
639.0975	0.0045
639.2848	0.0132
639.472	0.0059
639.6592	-0.0086
639.8464	-0.0034
640.0336	0.0117
640.2208	-0.0033
640.4079	-0.008
640.595	-0.0145
640.7821	0.0051
640.9692	0.0192
641.1563	-0.0008
641.3434	-0.0053
641.5304	0.0231
641.7174	0.0169
641.9044	0.0136
642.0914	0.0103
642.2784	-0.0033
642.4653	0.0129
642.6523	0.0108
642.8392	-0.0042
643.0261	0.0164
643.213	-0.0059
643.3999	0.0223
643.5867	-0.0003
643.7735	0.0154
643.9604	0.0013
644.1472	0.0066
644.3339	0.0048
644.5207	0.0014
644.7075	-0
644.8942	0.0033
645.0809	-0.0155
645.2676	-0.0151
645.4543	-0.0022
645.6409	0.0311
645.8276	0.0117
646.0142	0.0206
646.2008	-0.0095
646.3874	0.0106
646.574	-0.0049
646.7605	0.0228
646.9471	0.0044
647.1336	-0.0032
647.3201	0.0192
647.5066	0.0157
647.6931	0.014
647.8795	0.0157
648.0659	0.0153
648.2524	0.0188
648.4388	0.0005
648.6252	0.0031
648.8115	0.015
648.9979	0.0147
649.1842	-0.0011
649.3705	-0.0029
649.5568	-0.0061
649.7431	0.008
649.9294	-0.0046
650.1156	0.0061
650.3018	0.02
650.488	-0.0018
650.6742	0.0131
650.8604	0.0047
651.0466	-0.0142
651.2327	-0.0068
651.4188	0.0125
651.6049	0.0219
651.791	0.002
651.9771	0.0097
652.1632	0.0211
652.3492	-0.0035
652.5352	0.004
652.7212	0.0268
652.9072	-0.0195
653.0932	0.0051
653.2791	-0.0029
653.465	0.0216
653.651	0.0183
653.8369	0.013
654.0227	0.0122
654.2086	0.0193
654.3944	-0.0075
654.5803	0.0224
654.7661	0.0006
654.9519	0.0003
655.1377	0.0001
655.3234	0.0001
655.5092	0.0001
655.6949	0.0001
655.8806	0.0001
656.0663	0.0001
656.2519	0.0001
656.4376	0.0001
656.6232	0.0001
656.8088	0.0001
656.9945	0.0001
657.18	0.0001
657.3656	0.0001
657.5511	0.0001
657.7367	0.0001
657.9222	0.0001
658.1077	0.0001
658.2932	0.0001
658.4786	0.0001
658.6641	0.0001
658.8495	0.0001
659.0349	0.0001
659.2203	0.0001
659.4057	0.0001
659.591	0.1527
659.7764	0.0373
659.9617	-0.0071
660.147	0.0038
660.3323	0.0131
660.5176	0.011
660.7028	-0.0012
660.888	0.0011
661.0733	0.0034
661.2585	-0.0054
661.4436	-0.0123
661.6288	0.0458
661.8139	-0.0102
661.9991	-0.0161
662.1842	0.0037
662.3693	-0.0008
662.5544	0.0073
662.7394	0.0276
662.9245	0.0019
663.1095	-0.0101
663.2945	0.0105
663.4795	-0.0022
663.6644	-0.0092
663.8494	-0.0037
664.0343	0.0166
664.2193	-0.0218
664.4042	0.013
664.589	0.0012
664.7739	0.0126
664.9587	-0.0025
665.1436	-0.0015
665.3284	-0
665.5132	-0.022
665.698	0.016
665.8827	0.0195
666.0675	0.0069
666.2522	0.0311
666.4369	-0.0081
666.6216	0.029
666.8063	-0.0017
666.9909	0.0078
667.1756	-0.0024
667.3602	0.0032
667.5448	0.0006
667.7294	0.0162
667.9139	-0.0184
668.0985	0.0155
668.283	-0.0004
668.4675	0.024
668.652	0.015
668.8365	0.0056
669.0209	0.0068
669.2054	0.0051
669.3898	0.0006
669.5742	0.0268
669.7586	0.0106
669.943	0.0039
670.1273	-0.0113
670.3117	0.0167
670.496	0.015
670.6803	0.0161
670.8646	-0.0311
671.0488	0.0248
671.2331	-0.0165
671.4173	0.0212
671.6015	0.0132
671.7857	-0.0017
671.9699	0.0107
672.1541	0.001
672.3382	0.0081
672.5223	0.0065
672.7064	0.0165
672.8905	0.0058
673.0746	0.0027
673.2587	0.0246
673.4427	0.0236
673.6267	0.0186
673.8107	0.0089
673.9947	0.0426
674.1787	0.007
674.3626	-0.0057
674.5465	0.0057
674.7304	0.0088
674.9143	0.015
675.0982	-0.0152
675.2821	0.004
675.4659	-0.0019
675.6497	0.0191
675.8335	0.0381
676.0173	-0.0104
676.2011	0.0305
676.3849	0.0151
676.5686	0.0414
676.7523	-0.0184
676.936	-0.0018
677.1197	-0.0093
677.3034	0.0288
677.487	-0.0079
677.6706	0.0017
677.8542	0.0132
678.0378	-0.0054
678.2214	0.0046
678.405	0.0147
678.5885	0.0137
678.772	0.0142
678.9555	-0.0146
679.139	0.0025
679.3225	0.0015
679.5059	0.0067
679.6894	-0.0029
679.8728	0.0109
680.0562	-0.0011
680.2395	-0.007
680.4229	-0.0171
680.6062	0.0049
680.7896	0.0012
680.9729	0.0313
681.1562	-0.0021
681.3394	0.0137
681.5227	0.0179
681.7059	0.0154
681.8891	0.0193
682.0723	-0.0006
682.2555	0.0003
682.4387	0.0104
682.6218	0.0317
682.805	0.0121
682.9881	0.0149
683.1712	0.0137
683.3542	0.0143
683.5373	-0.0095
683.7203	0.01
683.9034	-0.0018
684.0864	0.0035
684.2694	-0
684.4523	0.0049
684.6353	0.0264
684.8182	0.008
685.0011	0.0233
685.184	0.0038
685.3669	0.0134
685.5498	0.0032
685.7326	-0.0002
685.9154	-0.0052
686.0982	0.0199
686.281	0.0107
686.4638	0.0106
686.6465	0.002
686.8293	-0.0029
687.012	0.0061
687.1947	0.0139
687.3774	0.0041
687.56	-0.0027
687.7427	-0.0029
687.9253	-0.0158
688.1079	0.0201
688.2905	0.0006
688.4731	0.025
688.6556	0.0133
688.8382	-0.0232
689.0207	0.0005
689.2032	0.0132
689.3857	-0.0174
689.5681	0.014
689.7506	0.0285
689.933	-0.0004
690.1154	0.0106
690.2978	-0.0047
690.4802	0.0192
690.6626	0.0043
690.8449	0.0084
691.0272	-0.004
691.2095	-0.0091
691.3918	0.0228
691.5741	0.0173
691.7563	0.0085
691.9386	0.0286
692.1208	0.0076
692.303	-0.002
692.4852	0.0011
692.6673	0.0262
692.8495	-0.013
693.0316	0.0057
693.2137	0.0163
693.3958	-0.0008
693.5778	0.005
693.7599	0.0083
693.9419	-0.0004
694.1239	0.0231
694.3059	0.0153
694.4879	0.0168
694.6699	0.0008
694.8518	0.0141
695.0337	0.0106
695.2157	0.0179
695.3975	0.0009
695.5794	-0.0218
695.7613	0.0194
695.9431	-0.0125
696.1249	0.0331
696.3067	0.0068
696.4885	0.0233
696.6703	-0.001
696.852	0.0017
697.0337	0.0141
697.2154	0.0014
697.3971	0.0026
697.5788	0.0045
697.7605	0.0065
697.9421	0.0208
698.1237	0.0104
698.3053	-0.0045
698.4869	0.0171
698.6685	0.0078
698.85	0.0256
699.0315	-0.0234
699.213	0.0117
699.3945	-0.0021
699.576	0.0151
699.7575	-0.0019
699.9389	-0.0206
700.1203	0.0158
700.3017	-0.0075
700.4831	0.016
700.6645	0.0425
700.8458	-0.0232
701.0271	0.0562
701.2084	-0.0028
701.3897	0.0082
701.571	0.0095
701.7523	0.0186
701.9335	0.0361
702.1147	0.0244
702.2959	0.0039
702.4771	0.0026
702.6583	0.0296
702.8394	-0.0061
703.0205	0.0219
703.2016	0.0112
703.3827	-0.0043
703.5638	0.0153
703.7449	0.0429
703.9259	0.0173
704.1069	-0.0058
704.2879	0.0138
704.4689	-0.0101
704.6499	0.049
704.8308	0.0141
705.0117	0.0107
705.1927	0.0294
705.3735	0.0121
705.5544	0.0155
705.7353	-0.0013
705.9161	-0.0251
706.0969	0.0179
706.2777	0.0045
706.4585	0.0072
706.6393	0.0242
706.82	0.0033
707.0007	-0.0007
707.1815	-0.0119
707.3621	0.0384
707.5428	0.0132
707.7235	0.0151
707.9041	0.0144
708.0847	0.0107
708.2653	0.0054
708.4459	0.0266
708.6265	-0.011
708.807	0.0076
708.9875	0.0003
709.168	-0.0032
709.3485	0.0311
709.529	-0.0008
709.7095	-0.0129
709.8899	0.021
710.0703	0.0125
710.2507	-0.0071
710.4311	-0.0244
710.6115	0.0109
710.7918	0.034
710.9721	0.0119
711.1524	-0.0092
711.3327	0.0019
711.513	0.0187
711.6932	0.0119
711.8735	0.0137
712.0537	0.0016
712.2339	0.0151
712.4141	0.0362
712.5942	-0.0048
712.7744	-0.0017
712.9545	0.0179
713.1346	0.0052
713.3147	0.0169
713.4947	-0.0125
713.6748	0.009
713.8548	0.0239
714.0348	0.0244
714.2148	0.0153
714.3948	0.0069
714.5748	0.0117
714.7547	0.0025
714.9346	0.0141
715.1145	-0.0141
715.2944	-0.0052
715.4743	0.0072
715.6541	0.0201
715.834	0.0122
716.0138	0.0239
716.1936	0.0195
716.3733	-0.0149
716.5531	-0.0033
716.7328	-0.0088
716.9126	-0.0085
717.0923	-0.0237
717.2719	0.0189
717.4516	0.0071
717.6312	-0.0118
717.8109	0.0458
717.9905	0.007
718.1701	0.0492
718.3496	0.0131
718.5292	0.0037
718.7087	0.0026
718.8882	0.0185
719.0677	-0.0008
719.2472	-0.0083
719.4267	0.0108
719.6061	-0.025
719.7856	0.0075
719.965	0.0167
720.1443	-0.0113
720.3237	-0.0152
720.5031	-0.0136
720.6824	-0.0068
720.8617	0.0007
721.041	0.0216
721.2203	-0.021
721.3995	0.0259
721.5788	-0.0125
721.758	-0.0091
721.9372	-0.0069
722.1164	0.0219
722.2956	-0.0009
722.4747	0.0302
722.6538	-0.0237
722.8329	0.0201
723.012	0.0038
723.1911	0.0012
723.3702	0.0261
723.5492	0.0081
723.7282	0.0064
723.9072	0.024
724.0862	-0.001
724.2652	-0.0039
724.4441	0.0007
724.623	0.0215
724.8019	0.0014
724.9808	0.0278
725.1597	0.011
725.3385	-0.0038
725.5174	0.0071
725.6962	0.0223
725.875	0.0039
726.0538	0.0187
726.2325	0.0291
726.4112	-0.0071
726.59	-0.0182
726.7687	-0.0013
726.9474	0.0245
727.126	0.0277
727.3047	-0.0121
727.4833	0.0071
727.6619	-0.0082
727.8405	-0.0014
728.0191	0.0359
728.1976	0.0265
728.3762	0.032
728.5547	-0.0126
728.7332	0.0313
728.9116	0.0116
729.0901	0.0143
729.2686	0.0153
729.447	-0.0004
729.6254	0.0241
729.8038	0.0179
729.9821	-0.0134
730.1605	0.0237
730.3388	-0.0104
730.5171	0.0238
730.6954	-0.0154
730.8737	0.0222
731.0519	0.0056
731.2302	0.0149
731.4084	-0.0096
731.5866	-0.0185
731.7648	0.0078
731.9429	0.0293
732.1211	-0.008
732.2992	0.0002
732.4773	-0.004
732.6554	-0.009
732.8335	0.0174
733.0115	0.0077
733.1896	-0.0098
733.3676	0.0186
733.5456	-0.0012
733.7235	0.0087
733.9015	0.0165
734.0794	0.0018
734.2574	-0.0231
734.4353	0.008
734.6131	-0.0132
734.791	0.0016
734.9689	-0.0093
735.1467	0.0024
735.3245	0.0072
735.5023	-0
735.68	-0.0033
735.8578	0.0103
736.0355	0.0083
736.2132	0.001
736.3909	0.0126
736.5686	-0
736.7463	-0.0108
736.9239	0.0169
737.1015	0.0035
737.2791	0.0083
737.4567	0.0063
737.6343	0.0238
737.8118	0.0085
737.9894	0.0056
738.1669	-0.0044
738.3444	0.0193
738.5218	-0.0084
738.6993	0.0164
738.8767	0.0162
739.0541	0.0065
739.2315	0.001
739.4089	0.0229
739.5863	0.0044
739.7636	-0.0001
739.9409	0.0021
740.1182	-0.0103
740.2955	0.0149
740.4728	-0.0262
740.65	0.0009
740.8272	0.0241
741.0044	0.0079
741.1816	0.0414
741.3588	-0.0222
741.5359	-0.006
741.7131	-0.0023
741.8902	0.0194
742.0673	-0.007
742.2444	0.0296
742.4214	0.0138
742.5985	0.0126
742.7755	-0.0166
742.9525	-0.0049
743.1295	-0.0086
743.3064	-0.0035
743.4834	0.0228
743.6603	0.0698
743.8372	-0.0393
744.0141	0.0444
744.191	0.0355
744.3678	-0.0353
744.5446	0.0174
744.7215	-0.0005
744.8982	0.0216
745.075	0.0384
745.2518	0.0077
745.4285	0.0282
745.6052	-0.0386
745.7819	0.0214
745.9586	0.0035
746.1353	-0.0432
746.3119	0.0138
746.4885	0.0251
746.6651	0.0038
746.8417	0.0141
747.0183	0.0384
747.1948	0.018
747.3714	0.0027
747.5479	0.0086
747.7244	-0.0063
747.9008	-0.01
748.0773	0.0278
748.2537	0.0373
748.4301	0.0004
748.6065	-0.0005
748.7829	-0.0092
748.9593	0.0045
749.1356	0.0178
749.3119	0.0306
749.4882	0.0291
749.6645	0.015
749.8408	0.0249
750.017	0.003
750.1933	-0.0117
750.3695	0.0049
750.5457	-0.0189
750.7218	-0.0035
750.898	-0.009
751.0741	0.0106
751.2502	0.0049
751.4263	0.0147
751.6024	-0.001
751.7784	0.0081
751.9545	-0.0063
752.1305	0.0157
752.3065	0.0038
752.4825	0.0052
752.6584	0.0015
752.8344	0.0029
753.0103	-0.0276
753.1862	0.0207
753.3621	-0.001
753.5379	-0.007
753.7138	0.014
753.8896	0.0003
754.0654	0.0107
754.2412	0.0194
754.417	0.0198
754.5927	0.0198
754.7685	0.0244
754.9442	0.0246
755.1199	-0.0216
755.2956	-0.0024
755.4712	0.0062
755.6469	0.02
755.8225	0.0061
755.9981	0.0159
756.1736	0.0074
756.3492	0.0145
756.5248	-0.0009
756.7003	-0.0038
756.8758	0.0097
757.0513	0.0058
757.2267	0.0015
757.4022	-0.0127
757.5776	0.0052
757.753	0.0123
757.9284	-0.0145
758.1038	0.0153
758.2791	0.018
758.4545	0.0014
758.6298	0.0099
758.8051	0.0152
758.9803	-0.0052
759.1556	0.0018
759.3308	-0.0048
759.506	0.0205
759.6812	-0.002
759.8564	0.0027
760.0316	0.0055
760.2067	0.0196
760.3819	0.0056
760.557	0.0033
760.732	0.0015
760.9071	0.0181
761.0821	-0.0252
761.2572	0.0052
761.4322	0.0126
761.6072	-0.0101
761.7821	-0.0304
761.9571	0.0288
762.132	0.0131
762.3069	0.02
762.4818	0.0262
762.6567	0.0159
762.8316	0.0212
763.0064	-0.0112
763.1812	0.0099
763.356	-0.0105
763.5308	0.0369
763.7055	-0.0126
763.8803	0.0025
764.055	0.0224
764.2297	-0.0162
764.4044	0.0031
764.579	-0
764.7537	0.0021
764.9283	0.0011
765.1029	0.0157
765.2775	0.0086
765.4521	0.0088
765.6266	0.0059
765.8011	-0.0031
765.9756	0.0054
766.1501	0.0255
766.3246	0.0036
766.4991	0.0106
766.6735	0.0386
766.8479	-0.0289
767.0223	0.0246
767.1967	0.0273
767.371	0.0035
767.5454	0.0009
767.7197	0.029
767.894	-0.0069
768.0683	0.0266
768.2425	0.0304
768.4168	-0.009
768.591	0.0106
768.7652	-0.0178
768.9394	-0.0066
769.1135	0.0074
769.2877	0.0079
769.4618	0.0195
769.6359	0.0029
769.81	0.012
769.984	0.0125
770.1581	-0.0045
770.3321	0.0261
770.5061	0.0028
770.6801	0.009
770.8541	0.0003
771.028	0.0329
771.202	0.0381
771.3759	0.0275
771.5498	0.0161
771.7236	-0.0085
771.8975	0.0316
772.0713	0.0258
772.2451	0.0073
772.4189	-0.0006
772.5927	-0.0351
772.7665	-0.0129
772.9402	0.0303
773.1139	-0.0163
773.2876	-0.0195
773.4613	0.0272
773.635	0.0187
773.8086	0.0177
773.9822	0.0335
774.1558	0.055
774.3294	0.0054
774.503	-0.0398
774.6765	0.0611
774.8501	0.0288
775.0236	0.038
775.1971	-0.0114
775.3705	-0.0055
775.544	-0.0367
775.7174	-0.0074
775.8908	0.0122
776.0642	0.0439
776.2376	0.0247
776.4109	0.0273
776.5843	-0.0207
776.7576	-0.0311
776.9309	0.0221
777.1041	-0.0081
777.2774	0.0452
777.4506	0.0102
777.6238	0.0214
777.797	0.0013
777.9702	0.0527
778.1434	0.0124
778.3165	-0.0327
778.4896	-0.0321
778.6627	0.0429
778.8358	-0.0276
779.0089	-0.0369
779.1819	0.027
779.3549	0.0182
779.5279	-0.0308
779.7009	0.0729
779.8739	0.0617
780.0468	0.0077
780.2197	-0.0093
780.3926	0.0091
780.5655	0.0011
780.7384	0.0156
780.9112	0.026
781.0841	0.0155
781.2569	0.0293
781.4297	0.0119
781.6024	0.0247
781.7752	0.0177
781.9479	0.0422
782.1206	0.002
782.2933	0.0465
782.466	0.0279
782.6386	-0.0229
782.8113	0.0034
782.9839	-0.0001
783.1565	0.0162
783.329	0.0022
783.5016	-0.0113
783.6741	0.011
783.8466	0.0632
784.0191	-0.0169
784.1916	0.0054
784.3641	0.0098
784.5365	-0.0202
784.7089	-0.0189
784.8813	0.0563
785.0537	0.0054
785.2261	0.0329
785.3984	0.0411
785.5707	0.0081
785.743	0.046
785.9153	0.0321
786.0876	0.0014
786.2598	-0.0141
786.432	-0.0016
786.6042	0.0425
786.7764	-0.0264
786.9486	0.002
787.1207	0.0379
787.2928	0.015
787.4649	-0.004
787.637	-0.0117
787.8091	0.019
787.9811	0.055
788.1532	0.0369
788.3252	0.0382
788.4972	0.006
788.6691	0.0308
788.8411	0.0171
789.013	-0.0007
789.1849	0.0172
789.3568	0.0275
789.5287	0.0417
789.7005	-0.0205
789.8723	-0.0395
790.0442	-0.008
790.2159	-0.0094
790.3877	0.0274
790.5595	0.0167
790.7312	-0.012
790.9029	-0.0032
791.0746	0.0401
791.2463	0.0045
791.4179	0.0465
791.5896	-0.0305
791.7612	0.032
791.9328	0.001
792.1044	-0.0267
792.2759	-0.0124
792.4474	0.0438
792.619	-0.0092
792.7905	0.0055
792.9619	0.0365
793.1334	0.0149
793.3048	0.0627
793.4762	0.0394
793.6476	-0.0254
793.819	0.0019
793.9904	0.0339
794.1617	0.003
794.333	0.0087
794.5043	0.0283
794.6756	0.0092
794.8469	0.0455
795.0181	0.0133
795.1893	-0.0001
795.3605	0.0483
795.5317	-0.0001
795.7029	-0.0356
795.874	0.0565
796.0452	0.0185
796.2163	0.029
796.3873	0.1405
796.5584	0.0507
796.7294	-0.0076
796.9005	0.0593
797.0715	-0.0034
797.2425	0.0959
797.4134	0.0491
797.5844	0.0753
797.7553	-0.0102
797.9262	0.0835
798.0971	0.0731
798.2679	0.0108
798.4388	0.035
798.6096	-0.0254
798.7804	0.0406
798.9512	-0.0392
799.122	-0.0141
799.2927	0.0954
799.4635	0.0133
799.6342	-0.0197
799.8049	0.068
799.9755	0.0423
800.1462	0.0039
800.3168	0.0145
800.4874	0.0214
800.658	0.0258
800.8286	0.0471
800.9991	0.0157
801.1696	0.0206
801.3402	0.0139
801.5106	0.0653
801.6811	0.0272
801.8516	0.0578
802.022	0.0111
802.1924	0.021
802.3628	0.0605
802.5332	0.1468
802.7035	0.1275
802.8739	0.0016
803.0442	0.0016
803.2145	-0.0051
803.3847	0.0236
803.555	0.0349
803.7252	-0.0328
803.8954	-0.018
804.0656	-0.028
804.2358	0.1206
804.4059	0.0558
804.5761	-0.0313
804.7462	0.0568
804.9163	-0.0018
805.0864	-0.0722
805.2564	-0.0668
805.4264	-0.0411
805.5965	0.0054
805.7665	0.0216
805.9364	0.0353
806.1064	-0.0025
806.2763	0.0362
806.4462	-0.0156
806.6161	0.0451
806.786	0.0266
806.9559	0.047
807.1257	0.0689
807.2955	0.0066
807.4653	0.0306
807.6351	-0.0014
807.8048	-0.0267
807.9746	0.0415
808.1443	0.0219
808.314	0.0749
808.4837	0.0308
808.6533	0.0222
808.8229	0.0067
808.9926	-0.0162
809.1622	0.0468
809.3317	-0.0171
809.5013	0.0203
809.6708	0.0777
809.8403	0.0911
810.0098	0.0406
810.1793	0.0483
810.3488	-0.0442
810.5182	0.1744
810.6876	0.1293
810.857	0.0341
811.0264	-0.0319
811.1958	0.1537
811.3651	0.0415
811.5344	0.1133
811.7037	-0.0651
811.873	0.1896
812.0422	0.0054
812.2115	0.0674
812.3807	0.0228
812.5499	0.0883
812.7191	-0.0515
812.8882	0.0354
813.0574	-0.0004
813.2265	0.0454
813.3956	0.0298
813.5646	0.137
813.7337	-0.0246
813.9027	-0.0281
814.0718	0.0833
814.2407	0.0943
814.4097	0.0604
814.5787	0.1294
814.7476	0.033
814.9165	0.0494
815.0854	-0.0242
815.2543	0.0163
815.4232	0.1051
815.592	0.0886
815.7608	-0.0165
815.9296	-0.006
816.0984	0.0516
816.2671	-0.1756
816.4359	0.118
816.6046	0.0981
816.7733	0.0134
816.942	0.0328
817.1106	0.0854
817.2793	-0.0257
817.4479	-0.0074
817.6165	0.0976
817.785	0.0812
817.9536	-0.0703
818.1221	0.0663
818.2906	-0.0105
818.4591	0.0514
818.6276	0.0598
818.7961	0.1497
818.9645	0.1024
819.1329	0.119
819.3013	-0.0429
819.4697	0.0573
819.638	0.1476
819.8064	0.0515
819.9747	0.0982
820.143	-0.0528
820.3113	0.0671
820.4795	0.1069
820.6477	0.1936
820.816	0.0275
820.9842	-0.0004
821.1523	0.0752
821.3205	-0.0044
821.4886	-0.0561
821.6567	-0.0004
821.8248	0.1027
821.9929	-0.0323
822.1609	-0.1043
822.329	0.0915
822.497	0.0985
822.665	-0.0405
822.833	-0.0856
823.0009	0.1537
823.1688	-0.0213
823.3367	-0.133
823.5046	-0.0005
823.6725	0.0704
823.8404	-0.0419
824.0082	0.1587
824.176	0.0939
824.3438	0.2365
824.5116	-0.0461
824.6793	0.3123
824.847	-0.0181
825.0147	-0.0473
825.1824	0.0654
825.3501	0.0581
825.5177	-0.0243
825.6854	-0.1261
825.853	0.0922
826.0206	-0.0251
826.1881	0.0876
826.3557	-0.0692
826.5232	0.1522
826.6907	0.124
826.8582	0.2233
827.0257	0.4171
827.1931	0.0648
827.3605	-0.09
827.528	0.3452
827.6953	-0.0878
827.8627	-0.0302
828.03	0.0911
828.1974	0.0062
828.3647	0.0635
828.532	0.1121
828.6992	0.0441
828.8665	-0.1587
829.0337	0.0108
829.2009	0.0277
829.3681	0.0911
829.5352	0.0157
829.7024	0.0403
829.8695	0.0227
830.0366	0.216
830.2037	0.0693
830.3707	0.0697
830.5378	-0.0064
830.7048	-0.1107
830.8718	0.1118
831.0388	0.0807
831.2057	-0.0647
831.3727	-0.2257
831.5396	-0.0596
831.7065	-0.4576
831.8734	-0.001
832.0402	0.2085
832.2071	1.1888
832.3739	0.8153
832.5407	-1.9039
832.7075	-0.1391
832.8742	0.4879
833.041	0.3164
833.2077	0.9775
833.3744	-0.0047
833.541	0.2328
833.7077	0.6185
833.8743	0.1475
834.0409	0.1528
834.2075	0.0909
834.3741	-0.1012
834.5407	0.1076
834.7072	-0.0007
834.8737	0.1234
835.0402	1.4333
835.2067	-0.1362
835.3731	0.2365
835.5395	-0.1136
835.706	-0.2017
835.8723	0.011
836.0387	0.8111
836.2051	0.4798
836.3714	0.1932
836.5377	-0.0319
836.704	0.1185
836.8703	-0.0442
837.0365	-0.982
837.2027	0.0491
837.3689	0.4891
837.5351	-0.0148
837.7013	-0.0575
837.8674	-0.0973
838.0335	-0.1062
838.1997	-0.104
838.3657	-0
838.5318	-0.3588
838.6978	0.4541
838.8639	0.5095
839.0299	-0.0874
839.1958	0.2704
839.3618	0.289
839.5277	-0.0545
839.6937	-0.0509
839.8596	-0.0796
840.0254	0.3017
840.1913	0.2851
840.3571	-0.137
840.523	-0
840.6888	0.4214
840.8545	-0.3514
841.0203	0.3463
841.186	0.0138
841.3517	-0.1627
841.5174	0.2565
841.6831	0.1924
841.8488	0.4395
842.0144	0.0839
842.18	-0.01
842.3456	-0.2377
842.5112	-0
842.6767	0.0361
842.8422	-0.0115
843.0077	1.2293
843.1732	-0.2274
843.3387	0.8363
843.5042	-0
843.6696	1.0168
843.835	-0.0921
844.0004	-0.3238
844.1657	-0
844.3311	-0.2952
844.4964	-0.6196
844.6617	0.6368
844.827	-0
844.9923	0.2733
845.1575	1.0261
845.3227	-0.2968
845.4879	-0.1863
845.6531	0.34
845.8183	1.0008
845.9834	-0
846.1485	0.2082
846.3136	0.3258
846.4787	-0
846.6438	-0.2092
846.8088	-0
846.9738	-0
847.1388	0.1995
847.3038	-0
847.4687	-0
847.6337	-0
847.7986	-0.2685
847.9635	-0.1752
848.1284	0.4724
848.2932	1.5019
848.458	-1.4314
848.6228	-0.1247
848.7876	0.6761
848.9524	-0.4323
849.1172	-1.865
849.2819	-0
849.4466	-0
849.6113	0.412
849.7759	-0
849.9406	-0.2284
850.1052	-0.6297
850.2698	-0
850.4344	-0.3442
850.599	0.026
850.7635	0.5067
850.928	1.1385
851.0925	0.3688
851.257	0.4075
851.4215	1.6104
851.5859	0.091
851.7503	-0.0462
851.9147	-0
852.0791	0.1388
852.2434	-0.0139
852.4078	-0
852.5721	-0
852.7364	0.1916
852.9007	0.0445
853.0649	-0
853.2291	0.6368
853.3934	0.3374
853.5575	-0
853.7217	0.721
853.8859	-0.6722
854.05	-0.3959
854.2141	-0
854.3782	0.1839
854.5423	-0.4517
854.7063	-0.0457
854.8703	0.0299
855.0343	-0.1005
855.1983	0.0381
855.3623	-0.2405
855.5262	-0
855.6901	-0
855.854	0.5293
856.0179	-0.3133
856.1818	-0
856.3456	1.3571
856.5094	-0
856.6732	-0
856.837	-1.0465
857.0008	-0
857.1645	-0.2364
857.3282	-0.3514
857.4919	-0
857.6556	-0.1822
857.8192	-0.1788
857.9828	0.5974
858.1465	0.8494
858.31	-0
858.4736	0.6655
858.6372	0.1636
858.8007	0.1632
858.9642	0.1562
859.1277	0.3161
859.2911	-0.3483
859.4546	-0
859.618	0.74
859.7814	-0
859.9448	-0
860.1081	-0
860.2715	-1.5071
860.4348	0.1691
860.5981	0.8858
860.7614	-0.0062
860.9246	0.0675
861.0879	-0
861.2511	0.2929
861.4143	-0.4771
861.5774	-0
861.7406	0.3027
861.9037	-0.4201
862.0668	-0
862.2299	0.5141
862.393	-0
862.556	-0.3469
862.7191	-0.2347
862.8821	0.0326
863.0451	0.1814
863.208	0.0298
863.371	-0.3834
863.5339	0.4136
863.6968	-0
863.8597	0.516
864.0225	0.1162
864.1854	0.0042
864.3482	-0
864.511	1.1357
864.6737	-0
864.8365	0.3018
864.9992	-0
865.1619	-0.4863
865.3246	-2.0637
865.4873	-0
865.65	0.3735
865.8126	-0
865.9752	-0.2791
866.1378	0.4716
866.3004	0.6268
866.4629	-1.4029
866.6254	-0.3469
866.7879	-0
866.9504	-0.1361
867.1129	-0.3096
867.2753	-0.1788
867.4377	1.5811
867.6001	-0.541
867.7625	-0.1715
867.9249	-0
868.0872	-0
868.2495	-0
868.4118	-0.413
868.5741	-0
868.7363	-0
868.8986	-0.6095
869.0608	-0.5037
869.223	-0.1162
869.3851	-0
869.5473	0.1631
869.7094	0.8096
869.8715	-0.1224
870.0336	0.2128
870.1957	-0.9882
870.3577	-0.0013
870.5197	-0.0546
870.6817	-0.6089
870.8437	-0.0367
871.0057	-0.1104
871.1676	0.2684
871.3295	-0
871.4914	-0
871.6533	-0
871.8151	0.6548
871.977	-0
872.1388	-0.2233
872.3006	-0.0385
872.4623	0.9434
872.6241	-0
872.7858	0.5435
872.9475	0.0663
873.1092	1.3759
873.2709	0.6223
873.4325	-2.0104
873.5941	-0.3885
873.7557	-0
873.9173	-0
874.0789	0.4303
874.2404	0.1218
874.4019	0.0737
874.5634	0.1823
874.7249	0.401
874.8863	-0.1782
875.0478	-0.028
875.2092	2.0868
875.3706	0.6144
875.5319	-0
875.6933	0.4965
875.8546	-0
876.0159	0.1874
876.1772	-0
876.3385	-0
876.4997	0.0116
876.6609	0.3026
876.8221	1.3862
876.9833	-0.0341
877.1445	0.4444
877.3056	-0.5768
877.4667	-0.4325
877.6278	-0
877.7889	0.003
877.9499	1.0737
878.111	-0.3894
878.272	-0
878.433	-0
878.5939	0.0736
878.7549	-0
878.9158	0.2085
879.0767	-0
879.2376	0.8568
879.3984	0.0623
879.5593	0.8472
879.7201	-1.3724
879.8809	-0.0973
880.0417	0.4396
880.2024	0.1242
880.3632	-0.1334
880.5239	0.1238
880.6846	-0.3834
880.8452	-0.3101
881.0059	-0
881.1665	0.0237
881.3271	0.0476
881.4877	0.3018
881.6483	-1.2841
881.8088	-0
881.9693	-0
882.1298	-0
882.2903	-0
