Data from D4ACN5uM440nmA_Absorbance_13-50-25-853.txt Node
Date: Fri Feb 21 13:50:25 GMT 2025
User: LASERRRRR
Spectrometer: FLMT03099
Trigger mode: 0
Integration Time (sec): 1.500000E-2
Scans to average: 1
Electric dark correction enabled: true
Nonlinearity correction enabled: false
Boxcar width: 0
XAxis mode: Wavelengths
Number of Pixels in Spectrum: 3648
>>>>>Begin Spectral Data<<<<<
179.3399	-0.2558
179.5586	-0.2558
179.7771	-0.2558
179.9957	-0.2442
180.2143	-1.3697
180.4329	-0
180.6514	-0
180.8699	-0
181.0885	-0
181.307	0.0717
181.5255	-0.086
181.744	-0
181.9625	0.2476
182.181	-0
182.3994	-0.1704
182.6179	0.2469
182.8363	-0
183.0547	-0.034
183.2732	-0.0081
183.4916	-0.0159
183.71	0.3286
183.9284	0.294
184.1467	0.1407
184.3651	0.0352
184.5835	0.33
184.8018	0.4328
185.0201	0.116
185.2385	0.1023
185.4568	0.2355
185.6751	0.1543
185.8934	0.22
186.1117	-0.1848
186.3299	0.1392
186.5482	0.2196
186.7664	0.1979
186.9847	-0.0767
187.2029	0.1265
187.4211	-0.1061
187.6393	0.2623
187.8575	0.2837
188.0757	0.5134
188.2939	-0.0874
188.512	0.2392
188.7302	0.0826
188.9483	0.3342
189.1665	0.6197
189.3846	0.3215
189.6027	0.1197
189.8208	0.0575
190.0389	0.1507
190.257	0.0261
190.475	0.0275
190.6931	0.0549
190.9111	0.0578
191.1292	0.0425
191.3472	0.1305
191.5652	0.3155
191.7832	0.1074
192.0012	0.1409
192.2192	0.1808
192.4371	0.1466
192.6551	0.1859
192.873	0.1789
193.091	0.1762
193.3089	0.2324
193.5268	0.2318
193.7447	0.191
193.9626	0.1799
194.1805	0.1566
194.3984	0.3126
194.6162	0.287
194.8341	0.3912
195.0519	0.2184
195.2697	0.2883
195.4875	0.2268
195.7054	0.2961
195.9231	0.2328
196.1409	0.3152
196.3587	0.3362
196.5765	0.2901
196.7942	0.3096
197.012	0.3764
197.2297	0.3236
197.4474	0.4314
197.6651	0.3156
197.8828	0.3019
198.1005	0.3937
198.3182	0.3893
198.5358	0.3623
198.7535	0.3623
198.9711	0.3599
199.1888	0.3807
199.4064	0.4111
199.624	0.3397
199.8416	0.4377
200.0592	0.3786
200.2767	0.385
200.4943	0.4031
200.7119	0.3958
200.9294	0.4256
201.1469	0.4281
201.3645	0.4698
201.582	0.4329
201.7995	0.4161
202.017	0.414
202.2344	0.4348
202.4519	0.3607
202.6694	0.3759
202.8868	0.4422
203.1042	0.4417
203.3217	0.3815
203.5391	0.4431
203.7565	0.3677
203.9739	0.3694
204.1913	0.3459
204.4086	0.3656
204.626	0.3474
204.8433	0.3412
205.0607	0.3551
205.278	0.3588
205.4953	0.333
205.7126	0.3777
205.9299	0.3201
206.1472	0.3522
206.3644	0.3547
206.5817	0.3068
206.7989	0.3415
207.0162	0.2907
207.2334	0.3411
207.4506	0.2988
207.6678	0.2817
207.885	0.3042
208.1022	0.2997
208.3194	0.2888
208.5365	0.2916
208.7537	0.2789
208.9708	0.3019
209.1879	0.309
209.405	0.2952
209.6222	0.2795
209.8392	0.2858
210.0563	0.2875
210.2734	0.2641
210.4905	0.2634
210.7075	0.2886
210.9245	0.2486
211.1416	0.2574
211.3586	0.257
211.5756	0.2473
211.7926	0.2654
212.0096	0.2752
212.2265	0.2724
212.4435	0.2464
212.6604	0.2518
212.8774	0.2371
213.0943	0.2686
213.3112	0.2587
213.5281	0.259
213.745	0.2334
213.9619	0.2308
214.1788	0.2542
214.3956	0.2336
214.6125	0.247
214.8293	0.2417
215.0461	0.2527
215.2629	0.2544
215.4798	0.2464
215.6965	0.2558
215.9133	0.2192
216.1301	0.2473
216.3469	0.2558
216.5636	0.2434
216.7803	0.2421
216.9971	0.2465
217.2138	0.2481
217.4305	0.2452
217.6472	0.2563
217.8639	0.2335
218.0805	0.2646
218.2972	0.2464
218.5138	0.239
218.7305	0.2529
218.9471	0.2359
219.1637	0.274
219.3803	0.2565
219.5969	0.2689
219.8135	0.2621
220.0301	0.2639
220.2466	0.2503
220.4632	0.2544
220.6797	0.2502
220.8962	0.2668
221.1127	0.2663
221.3292	0.2626
221.5457	0.2621
221.7622	0.2747
221.9787	0.2789
222.1951	0.2616
222.4116	0.275
222.628	0.2829
222.8444	0.2824
223.0608	0.2787
223.2772	0.2843
223.4936	0.2784
223.71	0.2807
223.9264	0.2878
224.1427	0.2802
224.3591	0.2941
224.5754	0.2825
224.7917	0.2896
225.008	0.2991
225.2243	0.3089
225.4406	0.2917
225.6569	0.3001
225.8732	0.3107
226.0894	0.305
226.3057	0.3043
226.5219	0.3147
226.7381	0.3085
226.9543	0.3153
227.1705	0.3153
227.3867	0.3326
227.6029	0.3321
227.8191	0.3257
228.0352	0.3293
228.2513	0.3435
228.4675	0.3365
228.6836	0.3358
228.8997	0.3395
229.1158	0.3556
229.3319	0.3612
229.548	0.3646
229.764	0.36
229.9801	0.3719
230.1961	0.3574
230.4121	0.3764
230.6282	0.3912
230.8442	0.3869
231.0602	0.3804
231.2761	0.3809
231.4921	0.3873
231.7081	0.3882
231.924	0.4054
232.14	0.3927
232.3559	0.4053
232.5718	0.4175
232.7877	0.412
233.0036	0.4121
233.2195	0.4151
233.4353	0.4205
233.6512	0.4131
233.867	0.4206
234.0829	0.4309
234.2987	0.4185
234.5145	0.4328
234.7303	0.4443
234.9461	0.4401
235.1619	0.4355
235.3776	0.4355
235.5934	0.4396
235.8091	0.4441
236.0249	0.4537
236.2406	0.4367
236.4563	0.4467
236.672	0.4409
236.8877	0.4477
237.1034	0.4507
237.319	0.4423
237.5347	0.4538
237.7503	0.4435
237.966	0.4623
238.1816	0.4565
238.3972	0.4537
238.6128	0.4542
238.8284	0.4566
239.0439	0.4587
239.2595	0.4567
239.475	0.4582
239.6906	0.4625
239.9061	0.4668
240.1216	0.4662
240.3371	0.4626
240.5526	0.4608
240.7681	0.4647
240.9836	0.4556
241.199	0.4553
241.4145	0.4475
241.6299	0.4463
241.8453	0.4433
242.0607	0.4368
242.2761	0.4408
242.4915	0.424
242.7069	0.4218
242.9223	0.423
243.1376	0.4111
243.353	0.4042
243.5683	0.3976
243.7836	0.3891
243.9989	0.3768
244.2142	0.3852
244.4295	0.3762
244.6448	0.3727
244.86	0.3602
245.0753	0.3497
245.2905	0.3464
245.5057	0.3342
245.721	0.3346
245.9362	0.3332
246.1514	0.32
246.3665	0.3143
246.5817	0.3068
246.7969	0.3019
247.012	0.2926
247.2271	0.2955
247.4423	0.2832
247.6574	0.2824
247.8725	0.2801
248.0876	0.2723
248.3026	0.2704
248.5177	0.2545
248.7328	0.2518
248.9478	0.2588
249.1628	0.2504
249.3779	0.2396
249.5929	0.2331
249.8079	0.2353
250.0228	0.2338
250.2378	0.2271
250.4528	0.2311
250.6677	0.2239
250.8827	0.2143
251.0976	0.2154
251.3125	0.2179
251.5274	0.2137
251.7423	0.2135
251.9572	0.2099
252.172	0.2124
252.3869	0.2042
252.6017	0.2026
252.8166	0.2022
253.0314	0.2008
253.2462	0.1962
253.461	0.1857
253.6758	0.1905
253.8906	0.1921
254.1053	0.189
254.3201	0.1907
254.5348	0.18
254.7496	0.1864
254.9643	0.1935
255.179	0.1909
255.3937	0.1834
255.6083	0.1861
255.823	0.1874
256.0377	0.1852
256.2523	0.18
256.467	0.1831
256.6816	0.1827
256.8962	0.1843
257.1108	0.1869
257.3254	0.1839
257.54	0.1824
257.7545	0.1812
257.9691	0.1781
258.1836	0.1711
258.3981	0.1787
258.6127	0.1761
258.8272	0.1858
259.0417	0.1767
259.2561	0.1782
259.4706	0.1751
259.6851	0.1783
259.8995	0.1681
260.114	0.1761
260.3284	0.1705
260.5428	0.1762
260.7572	0.1756
260.9716	0.1815
261.186	0.1785
261.4003	0.1813
261.6147	0.1762
261.829	0.1783
262.0433	0.1772
262.2577	0.1734
262.472	0.1705
262.6863	0.1847
262.9005	0.1768
263.1148	0.1801
263.3291	0.178
263.5433	0.1822
263.7576	0.1768
263.9718	0.1843
264.186	0.1805
264.4002	0.1828
264.6144	0.1872
264.8286	0.1867
265.0427	0.1843
265.2569	0.1874
265.471	0.1829
265.6851	0.1861
265.8993	0.1812
266.1134	0.1845
266.3275	0.182
266.5415	0.1891
266.7556	0.1862
266.9697	0.1894
267.1837	0.1855
267.3978	0.1833
267.6118	0.1817
267.8258	0.189
268.0398	0.1884
268.2538	0.1864
268.4677	0.1742
268.6817	0.1806
268.8957	0.1809
269.1096	0.174
269.3235	0.1795
269.5374	0.1831
269.7514	0.1791
269.9652	0.1748
270.1791	0.1726
270.393	0.172
270.6068	0.1762
270.8207	0.1857
271.0345	0.1755
271.2483	0.1722
271.4622	0.1754
271.676	0.1757
271.8897	0.1754
272.1035	0.1766
272.3173	0.1819
272.531	0.1764
272.7448	0.1709
272.9585	0.1728
273.1722	0.1702
273.3859	0.1777
273.5996	0.1761
273.8133	0.182
274.0269	0.1738
274.2406	0.1776
274.4542	0.1782
274.6679	0.1787
274.8815	0.1847
275.0951	0.1821
275.3087	0.1816
275.5223	0.1786
275.7358	0.1871
275.9494	0.188
276.1629	0.1832
276.3765	0.1826
276.59	0.1829
276.8035	0.1826
277.017	0.1925
277.2305	0.1795
277.444	0.1895
277.6574	0.1917
277.8709	0.199
278.0843	0.1831
278.2978	0.1875
278.5112	0.1888
278.7246	0.1882
278.938	0.1943
279.1513	0.1902
279.3647	0.1835
279.5781	0.1868
279.7914	0.1834
280.0047	0.1902
280.2181	0.1876
280.4314	0.1903
280.6447	0.1926
280.8579	0.1774
281.0712	0.1836
281.2845	0.182
281.4977	0.1877
281.711	0.1889
281.9242	0.1868
282.1374	0.1849
282.3506	0.1863
282.5638	0.1844
282.7769	0.1811
282.9901	0.1834
283.2033	0.1818
283.4164	0.1834
283.6295	0.1839
283.8426	0.1831
284.0557	0.1857
284.2688	0.1826
284.4819	0.1846
284.695	0.1921
284.908	0.1808
285.1211	0.1879
285.3341	0.1838
285.5471	0.1841
285.7601	0.1824
285.9731	0.1856
286.1861	0.1844
286.3991	0.1857
286.612	0.1866
286.825	0.1821
287.0379	0.1857
287.2508	0.1862
287.4637	0.1852
287.6766	0.1818
287.8895	0.1849
288.1024	0.1924
288.3152	0.184
288.5281	0.1841
288.7409	0.1899
288.9538	0.1907
289.1666	0.1895
289.3794	0.1854
289.5922	0.183
289.8049	0.1879
290.0177	0.1841
290.2304	0.1874
290.4432	0.1913
290.6559	0.1908
290.8686	0.1876
291.0813	0.1867
291.294	0.1826
291.5067	0.1832
291.7194	0.1859
291.932	0.1886
292.1447	0.1825
292.3573	0.1861
292.5699	0.1877
292.7825	0.1863
292.9951	0.1848
293.2077	0.1847
293.4203	0.1885
293.6328	0.1829
293.8454	0.1884
294.0579	0.1872
294.2704	0.1877
294.4829	0.1849
294.6954	0.1906
294.9079	0.1925
295.1204	0.1831
295.3328	0.1971
295.5453	0.1935
295.7577	0.1849
295.9701	0.1901
296.1825	0.1852
296.3949	0.1859
296.6073	0.1852
296.8197	0.1914
297.0321	0.1942
297.2444	0.1821
297.4567	0.1883
297.6691	0.1858
297.8814	0.1877
298.0937	0.187
298.306	0.1849
298.5182	0.1953
298.7305	0.1885
298.9428	0.1853
299.155	0.1816
299.3672	0.185
299.5794	0.1882
299.7916	0.183
300.0038	0.1896
300.216	0.1849
300.4282	0.1901
300.6403	0.1886
300.8525	0.1905
301.0646	0.1913
301.2767	0.1897
301.4888	0.184
301.7009	0.1898
301.913	0.1909
302.125	0.1904
302.3371	0.1839
302.5491	0.1898
302.7612	0.1927
302.9732	0.1899
303.1852	0.1979
303.3972	0.1909
303.6092	0.1869
303.8211	0.1928
304.0331	0.1864
304.245	0.1847
304.457	0.1852
304.6689	0.1838
304.8808	0.1832
305.0927	0.1881
305.3046	0.1842
305.5164	0.1834
305.7283	0.1793
305.9401	0.1701
306.152	0.1733
306.3638	0.1774
306.5756	0.1788
306.7874	0.177
306.9992	0.1741
307.2109	0.173
307.4227	0.167
307.6344	0.1714
307.8462	0.161
308.0579	0.1727
308.2696	0.1672
308.4813	0.1672
308.693	0.1628
308.9046	0.1699
309.1163	0.1616
309.328	0.1556
309.5396	0.156
309.7512	0.1517
309.9628	0.1527
310.1744	0.1511
310.386	0.1475
310.5976	0.1496
310.8091	0.1474
311.0207	0.1484
311.2322	0.144
311.4437	0.1435
311.6552	0.1454
311.8667	0.1449
312.0782	0.1422
312.2897	0.1425
312.5012	0.1433
312.7126	0.1381
312.924	0.1413
313.1355	0.1381
313.3469	0.1362
313.5583	0.1369
313.7696	0.1342
313.981	0.1438
314.1924	0.1349
314.4037	0.1341
314.6151	0.1293
314.8264	0.1356
315.0377	0.139
315.249	0.1326
315.4603	0.1244
315.6716	0.1303
315.8828	0.1267
316.0941	0.1272
316.3053	0.1311
316.5165	0.1329
316.7277	0.1266
316.9389	0.1317
317.1501	0.1287
317.3613	0.1319
317.5724	0.1275
317.7836	0.1202
317.9947	0.1259
318.2058	0.127
318.417	0.1196
318.6281	0.1302
318.8391	0.1336
319.0502	0.127
319.2613	0.1302
319.4723	0.1247
319.6834	0.135
319.8944	0.1286
320.1054	0.1265
320.3164	0.1239
320.5274	0.1269
320.7383	0.129
320.9493	0.1223
321.1602	0.1239
321.3712	0.1264
321.5821	0.1255
321.793	0.1314
322.0039	0.1257
322.2148	0.1315
322.4257	0.1222
322.6365	0.1248
322.8474	0.1301
323.0582	0.1282
323.269	0.1311
323.4798	0.1321
323.6906	0.1259
323.9014	0.1218
324.1122	0.1232
324.3229	0.135
324.5337	0.1322
324.7444	0.1312
324.9551	0.1365
325.1658	0.1202
325.3765	0.1335
325.5872	0.1323
325.7979	0.1312
326.0085	0.1269
326.2192	0.1234
326.4298	0.1316
326.6404	0.1388
326.851	0.1341
327.0616	0.1343
327.2722	0.1299
327.4828	0.1351
327.6933	0.1418
327.9039	0.1318
328.1144	0.1379
328.3249	0.1369
328.5354	0.1315
328.7459	0.1382
328.9564	0.1379
329.1669	0.1331
329.3773	0.1347
329.5878	0.1304
329.7982	0.1413
330.0086	0.1418
330.219	0.1368
330.4294	0.1398
330.6398	0.1407
330.8502	0.1402
331.0605	0.1361
331.2708	0.1317
331.4812	0.1414
331.6915	0.1397
331.9018	0.1357
332.1121	0.1488
332.3224	0.1372
332.5326	0.1372
332.7429	0.1365
332.9531	0.1446
333.1633	0.1357
333.3735	0.1382
333.5837	0.138
333.7939	0.1387
334.0041	0.15
334.2143	0.1327
334.4244	0.1479
334.6346	0.1353
334.8447	0.1408
335.0548	0.1432
335.2649	0.1431
335.475	0.1444
335.685	0.1401
335.8951	0.1428
336.1051	0.1492
336.3152	0.1438
336.5252	0.1466
336.7352	0.1409
336.9452	0.1391
337.1552	0.1405
337.3652	0.14
337.5751	0.1425
337.7851	0.1393
337.995	0.1489
338.2049	0.1464
338.4148	0.1529
338.6247	0.146
338.8346	0.1409
339.0445	0.1381
339.2543	0.1439
339.4642	0.1381
339.674	0.1398
339.8838	0.1457
340.0936	0.1477
340.3034	0.1443
340.5132	0.1419
340.7229	0.1481
340.9327	0.1548
341.1424	0.144
341.3522	0.1469
341.5619	0.1531
341.7716	0.1521
341.9813	0.1541
342.1909	0.1563
342.4006	0.1554
342.6102	0.1505
342.8199	0.1514
343.0295	0.1526
343.2391	0.1523
343.4487	0.1568
343.6583	0.1649
343.8679	0.1488
344.0774	0.1544
344.287	0.1564
344.4965	0.1549
344.706	0.1563
344.9155	0.1566
345.125	0.1571
345.3345	0.1658
345.544	0.1575
345.7534	0.1605
345.9629	0.1629
346.1723	0.1619
346.3817	0.1629
346.5911	0.1632
346.8005	0.1708
347.0099	0.1647
347.2193	0.1662
347.4286	0.1728
347.638	0.1695
347.8473	0.1711
348.0566	0.1733
348.2659	0.1673
348.4752	0.1705
348.6845	0.1717
348.8937	0.1752
349.103	0.1751
349.3122	0.1701
349.5214	0.1748
349.7306	0.1796
349.9398	0.1777
350.149	0.1723
350.3582	0.1811
350.5674	0.1796
350.7765	0.1839
350.9856	0.1739
351.1948	0.176
351.4039	0.1838
351.613	0.1785
351.822	0.1837
352.0311	0.1768
352.2402	0.1787
352.4492	0.1794
352.6582	0.177
352.8672	0.1815
353.0762	0.1794
353.2852	0.1856
353.4942	0.1852
353.7032	0.1826
353.9121	0.1854
354.1211	0.1819
354.33	0.1856
354.5389	0.1817
354.7478	0.1811
354.9567	0.1866
355.1655	0.1824
355.3744	0.1785
355.5833	0.1948
355.7921	0.1923
356.0009	0.1854
356.2097	0.1834
356.4185	0.1843
356.6273	0.1889
356.8361	0.1886
357.0448	0.182
357.2536	0.1889
357.4623	0.1909
357.671	0.1922
357.8797	0.1885
358.0884	0.1867
358.2971	0.1899
358.5057	0.1928
358.7144	0.1963
358.923	0.1997
359.1316	0.194
359.3402	0.201
359.5488	0.1902
359.7574	0.2014
359.966	0.1955
360.1746	0.1911
360.3831	0.1994
360.5916	0.2002
360.8002	0.205
361.0087	0.1969
361.2172	0.2128
361.4256	0.2118
361.6341	0.2097
361.8426	0.2068
362.051	0.2091
362.2594	0.2051
362.4678	0.207
362.6762	0.2053
362.8846	0.2115
363.093	0.2049
363.3014	0.2095
363.5097	0.2054
363.718	0.2207
363.9264	0.2174
364.1347	0.2144
364.343	0.2183
364.5513	0.2153
364.7595	0.223
364.9678	0.2134
365.176	0.2168
365.3842	0.2256
365.5925	0.2221
365.8007	0.2149
366.0089	0.23
366.217	0.2233
366.4252	0.2215
366.6333	0.2278
366.8415	0.2237
367.0496	0.2213
367.2577	0.2298
367.4658	0.2306
367.6739	0.219
367.882	0.2343
368.09	0.2215
368.2981	0.2316
368.5061	0.2357
368.7141	0.2383
368.9221	0.2425
369.1301	0.2385
369.3381	0.2453
369.5461	0.2338
369.754	0.2438
369.962	0.2409
370.1699	0.2394
370.3778	0.246
370.5857	0.2402
370.7936	0.2424
371.0015	0.2446
371.2093	0.2417
371.4172	0.2476
371.625	0.2466
371.8328	0.2435
372.0406	0.2466
372.2484	0.2433
372.4562	0.2519
372.664	0.2446
372.8717	0.2512
373.0795	0.2527
373.2872	0.2623
373.4949	0.2558
373.7026	0.2438
373.9103	0.2502
374.118	0.2552
374.3256	0.2569
374.5333	0.2556
374.7409	0.2566
374.9485	0.2602
375.1561	0.2586
375.3637	0.2542
375.5713	0.2696
375.7789	0.2604
375.9864	0.252
376.194	0.2678
376.4015	0.2569
376.609	0.2651
376.8165	0.2655
377.024	0.2632
377.2315	0.2685
377.4389	0.2528
377.6464	0.2682
377.8538	0.2663
378.0612	0.2688
378.2686	0.2668
378.476	0.273
378.6834	0.2693
378.8908	0.281
379.0981	0.2799
379.3055	0.2759
379.5128	0.2701
379.7201	0.2683
379.9274	0.2697
380.1347	0.2732
380.342	0.274
380.5492	0.2749
380.7565	0.2802
380.9637	0.2839
381.1709	0.2739
381.3781	0.28
381.5853	0.2729
381.7925	0.2722
381.9997	0.2807
382.2068	0.2863
382.4139	0.2836
382.6211	0.2853
382.8282	0.2899
383.0353	0.2955
383.2424	0.2792
383.4494	0.2855
383.6565	0.2862
383.8635	0.2855
384.0706	0.2937
384.2776	0.2844
384.4846	0.2878
384.6916	0.2856
384.8986	0.2866
385.1055	0.2959
385.3125	0.2906
385.5194	0.2885
385.7263	0.2839
385.9333	0.2879
386.1402	0.2982
386.347	0.2933
386.5539	0.2918
386.7608	0.2908
386.9676	0.2827
387.1744	0.2868
387.3813	0.2858
387.5881	0.2707
387.7948	0.29
388.0016	0.2921
388.2084	0.2918
388.4151	0.2783
388.6219	0.2804
388.8286	0.2894
389.0353	0.2955
389.242	0.2902
389.4487	0.2772
389.6553	0.2802
389.862	0.2819
390.0686	0.2873
390.2753	0.2831
390.4819	0.2746
390.6885	0.2856
390.8951	0.2849
391.1016	0.2754
391.3082	0.2835
391.5147	0.2732
391.7213	0.2765
391.9278	0.2683
392.1343	0.2746
392.3408	0.2696
392.5473	0.2658
392.7537	0.274
392.9602	0.2626
393.1666	0.272
393.373	0.2663
393.5794	0.2693
393.7858	0.2596
393.9922	0.2598
394.1986	0.2533
394.4049	0.2625
394.6113	0.2569
394.8176	0.2582
395.0239	0.2635
395.2302	0.2582
395.4365	0.2551
395.6428	0.2616
395.8491	0.2464
396.0553	0.2521
396.2615	0.248
396.4678	0.2586
396.674	0.2484
396.8802	0.2465
397.0863	0.251
397.2925	0.2524
397.4987	0.2441
397.7048	0.2554
397.9109	0.248
398.117	0.2402
398.3231	0.2416
398.5292	0.2336
398.7353	0.2439
398.9413	0.2413
399.1474	0.2432
399.3534	0.2448
399.5594	0.2437
399.7654	0.2456
399.9714	0.2372
400.1774	0.2309
400.3833	0.2376
400.5893	0.2405
400.7952	0.2421
401.0011	0.2466
401.207	0.2452
401.4129	0.2404
401.6188	0.2411
401.8247	0.2568
402.0305	0.2429
402.2364	0.2442
402.4422	0.2511
402.648	0.2434
402.8538	0.2439
403.0596	0.2389
403.2654	0.2374
403.4711	0.2376
403.6768	0.2326
403.8826	0.2438
404.0883	0.2423
404.294	0.2466
404.4997	0.2423
404.7054	0.2516
404.911	0.2475
405.1167	0.2364
405.3223	0.2355
405.5279	0.2485
405.7335	0.2384
405.9391	0.2387
406.1447	0.2472
406.3502	0.239
406.5558	0.2375
406.7613	0.2478
406.9668	0.2374
407.1724	0.244
407.3778	0.2436
407.5833	0.2237
407.7888	0.2381
407.9942	0.2509
408.1997	0.2422
408.4051	0.2437
408.6105	0.2384
408.8159	0.235
409.0213	0.2485
409.2267	0.2508
409.432	0.2368
409.6374	0.2466
409.8427	0.2457
410.048	0.2412
410.2533	0.2452
410.4586	0.2315
410.6639	0.2404
410.8691	0.2404
411.0744	0.2336
411.2796	0.2367
411.4848	0.2407
411.69	0.2395
411.8952	0.2338
412.1004	0.2456
412.3056	0.2271
412.5107	0.2466
412.7158	0.2438
412.921	0.2446
413.1261	0.2307
413.3312	0.2419
413.5362	0.2506
413.7413	0.2458
413.9464	0.2301
414.1514	0.2389
414.3564	0.2287
414.5614	0.2287
414.7664	0.2289
414.9714	0.2252
415.1764	0.2341
415.3813	0.2396
415.5863	0.2349
415.7912	0.2286
415.9961	0.2318
416.201	0.2393
416.4059	0.2271
416.6108	0.2361
416.8156	0.2319
417.0205	0.2383
417.2253	0.2322
417.4301	0.2449
417.6349	0.2353
417.8397	0.231
418.0445	0.2249
418.2492	0.2391
418.454	0.2316
418.6587	0.2279
418.8634	0.2348
419.0681	0.2384
419.2728	0.231
419.4775	0.2285
419.6822	0.2246
419.8868	0.2199
420.0915	0.2259
420.2961	0.2254
420.5007	0.2292
420.7053	0.2162
420.9099	0.2238
421.1144	0.2191
421.319	0.222
421.5235	0.22
421.728	0.2202
421.9325	0.2247
422.137	0.2169
422.3415	0.228
422.546	0.2062
422.7504	0.2192
422.9549	0.2185
423.1593	0.2137
423.3637	0.2173
423.5681	0.2197
423.7725	0.2201
423.9769	0.2175
424.1812	0.2047
424.3856	0.2115
424.5899	0.2103
424.7942	0.2231
424.9985	0.2068
425.2028	0.2161
425.4071	0.2066
425.6113	0.2094
425.8156	0.2056
426.0198	0.209
426.224	0.2124
426.4282	0.1985
426.6324	0.1989
426.8366	0.1843
427.0407	0.1965
427.2449	0.1961
427.449	0.1923
427.6531	0.2072
427.8572	0.2001
428.0613	0.196
428.2654	0.1932
428.4694	0.1831
428.6735	0.1839
428.8775	0.1939
429.0815	0.1924
429.2855	0.1851
429.4895	0.1875
429.6935	0.1892
429.8975	0.175
430.1014	0.1802
430.3053	0.1885
430.5093	0.1823
430.7132	0.1679
430.9171	0.1806
431.1209	0.1714
431.3248	0.1657
431.5286	0.1741
431.7325	0.1757
431.9363	0.1634
432.1401	0.175
432.3439	0.1687
432.5477	0.1576
432.7514	0.1661
432.9552	0.1625
433.1589	0.1554
433.3627	0.1586
433.5664	0.1564
433.7701	0.1579
433.9737	0.1636
434.1774	0.1558
434.3811	0.1438
434.5847	0.1473
434.7883	0.1506
434.9919	0.1383
435.1955	0.1451
435.3991	0.142
435.6027	0.1284
435.8062	0.1541
436.0098	0.1356
436.2133	0.1303
436.4168	0.1362
436.6203	0.1239
436.8238	0.1255
437.0272	0.1315
437.2307	0.1285
437.4341	0.1275
437.6375	0.1253
437.841	0.1235
438.0443	0.1285
438.2477	0.1043
438.4511	0.1078
438.6545	0.1197
438.8578	0.1203
439.0611	0.1096
439.2644	0.1125
439.4677	0.1114
439.671	0.0976
439.8743	0.1082
440.0775	0.1067
440.2808	0.1025
440.484	0.1012
440.6872	0.0997
440.8904	0.091
441.0936	0.0974
441.2967	0.0878
441.4999	0.0891
441.703	0.0979
441.9062	0.0968
442.1093	0.0983
442.3124	0.0903
442.5155	0.0903
442.7185	0.0847
442.9216	0.0863
443.1246	0.0872
443.3276	0.0878
443.5307	0.08
443.7337	0.0829
443.9366	0.078
444.1396	0.0771
444.3426	0.0763
444.5455	0.071
444.7484	0.073
444.9513	0.0776
445.1542	0.0747
445.3571	0.0789
445.56	0.069
445.7628	0.0689
445.9657	0.07
446.1685	0.0652
446.3713	0.0722
446.5741	0.0737
446.7769	0.0645
446.9797	0.0643
447.1824	0.0659
447.3852	0.0531
447.5879	0.0539
447.7906	0.0554
447.9933	0.0561
448.196	0.0502
448.3986	0.0553
448.6013	0.0476
448.8039	0.0591
449.0066	0.0553
449.2092	0.0598
449.4118	0.0465
449.6143	0.0528
449.8169	0.0508
450.0195	0.0395
450.222	0.0465
450.4245	0.0523
450.627	0.0392
450.8295	0.0428
451.032	0.0491
451.2345	0.0381
451.4369	0.0389
451.6394	0.0395
451.8418	0.0462
452.0442	0.0357
452.2466	0.0248
452.449	0.0314
452.6513	0.0331
452.8537	0.038
453.056	0.0293
453.2583	0.0282
453.4607	0.0328
453.663	0.0326
453.8652	0.0316
454.0675	0.0447
454.2697	0.0441
454.472	0.0326
454.6742	0.0287
454.8764	0.0352
455.0786	0.0257
455.2808	0.0291
455.4829	0.0336
455.6851	0.0232
455.8872	0.015
456.0893	0.0233
456.2915	0.0199
456.4935	0.0346
456.6956	0.0227
456.8977	0.0136
457.0997	0.0305
457.3018	0.0181
457.5038	0.0233
457.7058	0.0271
457.9078	0.0246
458.1098	0.0224
458.3117	0.0307
458.5137	0.0068
458.7156	0.0204
458.9175	0.0271
459.1194	0.0143
459.3213	0.0218
459.5232	0.0185
459.725	0.0197
459.9269	0.0205
460.1287	0.0164
460.3305	0.0216
460.5323	0.0212
460.7341	0.0242
460.9359	0.0165
461.1376	0.0178
461.3394	0.0219
461.5411	0.0253
461.7428	0.0194
461.9445	0.0157
462.1462	0.0083
462.3479	0.02
462.5495	0.0161
462.7512	0.0251
462.9528	0.0161
463.1544	0.0157
463.356	0.0132
463.5576	0.0248
463.7592	0.0176
463.9607	0.0185
464.1623	0.0173
464.3638	0.0057
464.5653	0.0152
464.7668	0.0177
464.9683	0.0112
465.1697	0.0085
465.3712	0.0101
465.5726	0.008
465.7741	0.0148
465.9755	0.0031
466.1769	0.0135
466.3782	0.0048
466.5796	0.0149
466.7809	0.0124
466.9823	0.0124
467.1836	0.0047
467.3849	0.0113
467.5862	-0.0025
467.7875	0.015
467.9887	0.0116
468.19	0.0146
468.3912	0.0134
468.5924	0.0033
468.7936	0.0161
468.9948	0.0055
469.196	0.0064
469.3972	0.0015
469.5983	0.0145
469.7994	0.0175
470.0006	0.0153
470.2017	0.0037
470.4027	0.0237
470.6038	0.0098
470.8049	0.005
471.0059	0.0098
471.2069	0.015
471.408	0.0098
471.6089	0.0084
471.8099	0.0047
472.0109	0.0111
472.2119	0.0121
472.4128	0.0083
472.6137	0.0035
472.8146	0.0046
473.0155	0.0169
473.2164	0.0154
473.4173	-0.0032
473.6181	0.0036
473.819	0.0106
474.0198	0.0101
474.2206	-0.0022
474.4214	0.0097
474.6222	0.0014
474.8229	-0.0043
475.0237	0.0158
475.2244	0.0155
475.4251	0.0088
475.6258	0.0147
475.8265	0.0174
476.0272	0.0027
476.2278	0.0101
476.4285	-0
476.6291	0.011
476.8297	0.0129
477.0303	0.0034
477.2309	0.0033
477.4315	0.0093
477.632	0.0016
477.8326	0.0079
478.0331	0.0117
478.2336	0.0109
478.4341	0.0102
478.6346	-0.0009
478.8351	0.007
479.0355	0.0108
479.236	0.0171
479.4364	0.0073
479.6368	0.0144
479.8372	0.0051
480.0376	0.0033
480.2379	0.0057
480.4383	0.0126
480.6386	-0.0033
480.8389	0.0041
481.0392	0.0072
481.2395	0.0082
481.4398	0.0017
481.6401	0.0053
481.8403	0.0013
482.0405	0.0087
482.2408	0.0077
482.441	0.013
482.6411	0.0041
482.8413	0.0069
483.0415	0.0137
483.2416	0.0114
483.4417	0.0098
483.6419	-0.0045
483.8419	0.0077
484.042	0.0076
484.2421	-0.0049
484.4422	0.0055
484.6422	0.0026
484.8422	0.0063
485.0422	0.0092
485.2422	0.0007
485.4422	0.0049
485.6422	0.0041
485.8421	0.0051
486.042	0.0119
486.242	-0.0021
486.4419	0.0084
486.6417	0.0001
486.8416	0.0085
487.0415	0.0019
487.2413	0.0015
487.4411	0.0095
487.641	0.0062
487.8408	0.0103
488.0405	0.0064
488.2403	-0.0069
488.4401	0.0099
488.6398	0.0103
488.8395	0.0047
489.0392	0.0094
489.2389	0.0086
489.4386	0.0055
489.6383	0.0123
489.8379	-0.0019
490.0376	0.0033
490.2372	0.0108
490.4368	0.0048
490.6364	-0.0043
490.836	0.004
491.0355	-0.0003
491.2351	0.0043
491.4346	0.0097
491.6341	0.0025
491.8336	0.006
492.0331	-0.0022
492.2326	0.0078
492.432	0.0086
492.6315	0.0146
492.8309	0.0077
493.0303	0.0058
493.2297	0.0072
493.4291	0.005
493.6284	0.012
493.8278	0.0013
494.0271	0.0078
494.2264	0.0037
494.4257	0.007
494.625	-0.0052
494.8243	0.0014
495.0236	0.0055
495.2228	0.0133
495.422	0.0039
495.6213	0.0037
495.8205	0.0076
496.0196	0.0029
496.2188	0.005
496.418	0.0092
496.6171	-0.0007
496.8162	0.0078
497.0153	0.0054
497.2144	0.0035
497.4135	0.0064
497.6126	0.0036
497.8116	0.0074
498.0107	0.0039
498.2097	0.0069
498.4087	0.0042
498.6077	-0.0007
498.8067	0.0088
499.0056	-0.0004
499.2046	0.0075
499.4035	0.0117
499.6024	0.0003
499.8013	0.0107
500.0002	0.011
500.199	0.005
500.3979	0.009
500.5967	0.0068
500.7956	0.0068
500.9944	0.0032
501.1932	0.0156
501.3919	0.0138
501.5907	0.0111
501.7895	0.0096
501.9882	-0.0013
502.1869	0.0061
502.3856	-0.0029
502.5843	0.0088
502.783	0.0045
502.9816	0.0117
503.1803	0.0073
503.3789	0.0108
503.5775	0.004
503.7761	0.0012
503.9747	0.0082
504.1732	0.0038
504.3718	0.0118
504.5703	0.0021
504.7689	-0.0037
504.9674	0.0068
505.1658	0.0063
505.3643	0.0067
505.5628	0.0114
505.7612	0.0194
505.9597	-0.0022
506.1581	0.0072
506.3565	0.0021
506.5549	0.0053
506.7532	0.0068
506.9516	0.0101
507.1499	0.0072
507.3482	0.0146
507.5465	0.0042
507.7448	-0.0007
507.9431	0.0103
508.1414	-0.0031
508.3396	0.0014
508.5379	-0.003
508.7361	0.0095
508.9343	0.0077
509.1325	0.008
509.3306	0.0096
509.5288	-0.0088
509.7269	0.0123
509.9251	0.0028
510.1232	0.0116
510.3213	0.009
510.5193	0.0051
510.7174	0.0026
510.9154	0.0156
511.1135	0.0007
511.3115	0.0037
511.5095	-0.0015
511.7075	0.0125
511.9055	0.0072
512.1034	0.0042
512.3014	0.0132
512.4993	0.0039
512.6972	-0.0077
512.8951	0.0094
513.093	0.002
513.2908	0.0194
513.4887	0.0077
513.6865	0.0007
513.8844	0.0054
514.0822	0.0007
514.2799	0.0019
514.4777	-0.0026
514.6755	0.0014
514.8732	0.0002
515.0709	0.0062
515.2687	0.0086
515.4664	0.0137
515.664	0.0101
515.8617	0.0092
516.0594	0.0082
516.257	0.0133
516.4546	0.0155
516.6522	0.0053
516.8498	0.0097
517.0474	0.0094
517.2449	-0.0011
517.4425	0.0105
517.64	0.0134
517.8375	0.0044
518.035	-0.0056
518.2325	-0.0039
518.43	0.0039
518.6274	-0.001
518.8249	0.0075
519.0223	0.016
519.2197	0.0064
519.4171	0.0053
519.6145	0.0073
519.8118	0.0023
520.0092	0.0048
520.2065	0.0099
520.4038	0.0015
520.6011	0.0171
520.7984	0.0049
520.9956	0.0091
521.1929	0.0095
521.3901	-0.0014
521.5874	0.0041
521.7846	0.0112
521.9818	0.0035
522.1789	-0.0027
522.3761	0.0124
522.5732	0.0111
522.7704	-0.0045
522.9675	-0.0023
523.1646	-0.0064
523.3617	0.0164
523.5587	0.0176
523.7558	0.0045
523.9528	0.0058
524.1498	-0.006
524.3468	0.0038
524.5438	0.0085
524.7408	-0.0043
524.9378	0.0117
525.1347	0.0055
525.3316	0.0135
525.5285	0.0088
525.7254	0.0068
525.9223	0.0103
526.1192	0.0161
526.316	0.0158
526.5129	0.0068
526.7097	0.0026
526.9065	0.0102
527.1033	0.0103
527.3	-0.0011
527.4968	0.0007
527.6935	-0.0093
527.8903	0.0045
528.087	0.0053
528.2837	0.0106
528.4804	0.005
528.677	0.0056
528.8737	0.013
529.0703	0.007
529.2669	0.0181
529.4635	-0.0009
529.6601	-0.0035
529.8567	0.0058
530.0532	0.0036
530.2498	-0.004
530.4463	-0.0051
530.6428	0.0146
530.8393	0.0196
531.0358	0.0071
531.2322	-0.0017
531.4287	-0.0019
531.6251	-0.0055
531.8215	0.0005
532.0179	0.0124
532.2143	0.0047
532.4107	0.0084
532.607	0.0002
532.8034	0.01
532.9997	-0.0036
533.196	0.0061
533.3923	0.0122
533.5886	0.0116
533.7848	-0.0032
533.9811	0.0069
534.1773	0.0106
534.3735	0.0094
534.5697	0.0064
534.7659	0.0112
534.9621	0.0049
535.1582	0.0125
535.3544	0.0041
535.5505	0.0094
535.7466	0.0085
535.9427	0.0044
536.1387	-0.0037
536.3348	0.0064
536.5308	0.009
536.7269	0.0005
536.9229	0.0039
537.1189	0.0055
537.3148	0.0047
537.5108	0.0139
537.7068	0.0175
537.9027	-0.017
538.0986	0.0092
538.2945	0.006
538.4904	-0.0011
538.6863	0.0141
538.8821	0.0105
539.078	0.01
539.2738	0.0077
539.4696	0.004
539.6654	0.0067
539.8611	0.0046
540.0569	-0.0057
540.2526	0.0119
540.4484	-0.0043
540.6441	0.0034
540.8398	0.0104
541.0355	0.0001
541.2311	0.0051
541.4268	0.0092
541.6224	0.0189
541.818	0.0063
542.0136	0.0114
542.2092	0.0131
542.4048	0.0098
542.6003	0.0044
542.7959	0.0088
542.9914	0.0029
543.1869	0.0019
543.3824	0.0031
543.5779	0.0112
543.7734	0.0132
543.9688	0.0019
544.1642	0.0079
544.3596	0.005
544.555	0.0035
544.7504	0.0114
544.9458	0.0096
545.1411	-0.0007
545.3365	0.0056
545.5318	0.0065
545.7271	0.004
545.9224	-0.0009
546.1177	0.0106
546.3129	0.005
546.5081	-0.001
546.7034	-0.0009
546.8986	0.0024
547.0938	0.0064
547.289	0.0125
547.4841	0.0018
547.6793	0.0062
547.8744	0.0028
548.0695	-0.0004
548.2646	0.013
548.4597	0.0054
548.6548	0.018
548.8498	0.0167
549.0448	0.0039
549.2399	0.0111
549.4349	0.0131
549.6298	0.0101
549.8248	-0.0057
550.0198	0.0137
550.2147	0.018
550.4096	-0.0126
550.6045	0.0059
550.7994	0.0082
550.9943	0.0068
551.1892	-0.0073
551.384	0.0148
551.5788	0.0046
551.7737	0.0034
551.9685	0.0081
552.1632	0.0066
552.358	0.006
552.5528	0.0056
552.7475	0.0041
552.9422	0.0132
553.1369	0.0199
553.3316	0.01
553.5263	0.0116
553.7209	-0.0065
553.9156	0.0067
554.1102	0.0184
554.3048	-0.0066
554.4994	0.0084
554.694	0.0101
554.8885	0.0045
555.0831	0.0126
555.2776	0.0103
555.4721	0.0036
555.6666	0.0051
555.8611	0.0056
556.0555	0.0031
556.25	0.0004
556.4444	0.0002
556.6388	0.0071
556.8332	0.0085
557.0276	-0.0017
557.222	-0.0045
557.4163	0.011
557.6107	-0.0037
557.805	0.0006
557.9993	0.0043
558.1936	0.0077
558.3879	0.0101
558.5821	0.0058
558.7764	-0.0038
558.9706	0.0152
559.1648	0.0011
559.359	-0.0041
559.5532	0.0021
559.7473	-0.005
559.9415	0.0092
560.1356	0.0168
560.3297	0.0053
560.5238	0.0116
560.7179	0.0027
560.9119	0.0025
561.106	-0.0052
561.3	0.0041
561.494	0.0045
561.688	-0.0014
561.882	0.0066
562.076	0.0079
562.2699	0.0134
562.4639	0.0195
562.6578	0.0146
562.8517	0.0141
563.0456	0.0155
563.2395	0.011
563.4333	0.0023
563.6272	0.0004
563.821	0.0119
564.0148	-0.001
564.2086	0.0039
564.4024	0.0154
564.5961	0.0065
564.7899	0.0216
564.9836	0.0041
565.1773	0.0087
565.371	-0.0053
565.5647	0.007
565.7584	0.0126
565.952	0.0105
566.1456	0.0068
566.3393	0.0031
566.5329	-0.003
566.7264	0.008
566.92	0.0061
567.1136	0.0008
567.3071	0.0004
567.5006	0.005
567.6941	0.002
567.8876	0.0062
568.0811	0.0139
568.2745	0.0033
568.468	0.0031
568.6614	0.0121
568.8548	0.0058
569.0482	0.0052
569.2416	0.008
569.4349	0.0054
569.6283	0.0017
569.8216	0.0094
570.0149	0.0027
570.2082	0.0082
570.4015	0.0032
570.5947	0.007
570.788	0.0062
570.9812	0.006
571.1744	0.0073
571.3676	0.0062
571.5608	0.0023
571.754	0.0102
571.9471	0.0119
572.1402	0.0082
572.3333	0.0031
572.5264	0.0087
572.7195	0.008
572.9126	0.0076
573.1057	0.0062
573.2987	0.0051
573.4917	0.007
573.6847	0.0041
573.8777	0.0091
574.0707	0.0035
574.2636	0.0027
574.4566	0.0029
574.6495	0.005
574.8424	0.004
575.0353	0.0091
575.2281	0.0117
575.421	-0.0019
575.6138	-0.0002
575.8067	0.0073
575.9995	0.0049
576.1923	0.0044
576.385	0.0058
576.5778	0.0077
576.7706	0.0071
576.9633	0.0056
577.156	-0.0032
577.3487	0.0038
577.5414	0.0043
577.734	0.0015
577.9267	0.0094
578.1193	0.0085
578.3119	0.0043
578.5045	0.0034
578.6971	0.0022
578.8897	0.002
579.0822	0.0073
579.2747	0.0008
579.4673	0.0069
579.6598	0.0081
579.8522	0.0051
580.0447	0.0066
580.2372	0.0124
580.4296	0.0106
580.622	0.0036
580.8144	0.0055
581.0068	0.008
581.1992	0.0067
581.3915	0
581.5839	0.0045
581.7762	0.0022
581.9685	0.007
582.1608	0.003
582.353	0.0045
582.5453	0.0063
582.7375	0.0086
582.9298	0.004
583.122	0.0019
583.3142	0.0093
583.5063	0.0058
583.6985	0.0024
583.8906	0.004
584.0827	0.0079
584.2749	0.0031
584.4669	0.0021
584.659	0.0073
584.8511	0.0102
585.0431	0.0056
585.2352	0.0008
585.4272	0.0049
585.6192	0.0044
585.8111	0.0004
586.0031	0.0005
586.195	0.0029
586.387	0.0046
586.5789	0.0044
586.7708	0.0034
586.9627	0.0068
587.1545	0.0034
587.3464	0.0066
587.5382	0.0072
587.73	0.0083
587.9218	-0.0014
588.1136	-0.0004
588.3053	0.0043
588.4971	0.004
588.6888	0.003
588.8805	0.0028
589.0722	0.0084
589.2639	0.006
589.4556	0.0072
589.6472	0.002
589.8389	0.0067
590.0305	0.0045
590.2221	0.0145
590.4137	0.0068
590.6052	0.0011
590.7968	0.0079
590.9883	0.0039
591.1798	0.0043
591.3713	0.007
591.5628	0.0068
591.7543	0.0066
591.9458	0.0027
592.1372	0.0036
592.3286	0.0023
592.52	0.0031
592.7114	0.0059
592.9028	0.0095
593.0941	0.0029
593.2855	0.0052
593.4768	0.0104
593.6681	0.0072
593.8594	0.004
594.0506	0.0067
594.2419	0.0036
594.4331	0.005
594.6244	-0.0007
594.8156	0.0077
595.0067	0.0014
595.1979	-0.0015
595.3891	0.0019
595.5802	0.0081
595.7713	0.0044
595.9624	0.0041
596.1535	0.0067
596.3446	0.0027
596.5357	0.0106
596.7267	0.0038
596.9177	0.0069
597.1087	-0.0045
597.2997	0.0106
597.4907	-0.0023
597.6817	0.0064
597.8726	0.0074
598.0635	-0.0018
598.2544	0.0066
598.4453	0.0073
598.6362	0.0012
598.827	0.0055
599.0179	0.0036
599.2087	0.0095
599.3995	0.0064
599.5903	0.0021
599.7811	0.0106
599.9718	-0.0025
600.1626	0.0037
600.3533	0.0004
600.544	0.0029
600.7347	0.0035
600.9254	0.0137
601.116	0.0024
601.3067	0.0028
601.4973	0.0126
601.6879	0.0049
601.8785	0.0106
602.0691	0.0032
602.2596	0.0028
602.4502	0.0061
602.6407	0.0064
602.8312	0.0037
603.0217	0.0072
603.2122	0.0043
603.4027	0.0128
603.5931	0.0094
603.7835	0.0098
603.9739	0.0061
604.1643	0.0102
604.3547	0.006
604.5451	0.0127
604.7354	0.0018
604.9257	0.0022
605.116	0.0004
605.3063	0.0075
605.4966	0.0066
605.6869	0.0108
605.8771	0.0031
606.0673	0.0007
606.2575	0.0015
606.4477	0.0128
606.6379	-0.0044
606.8281	-0.0002
607.0182	0.0021
607.2083	0.0083
607.3985	0.0068
607.5885	0.0055
607.7786	0.01
607.9687	0.0074
608.1587	0.0047
608.3488	0.006
608.5388	0.0006
608.7288	-0.0037
608.9187	0.0021
609.1087	0.0015
609.2986	0.0064
609.4886	0.0051
609.6785	0.0061
609.8684	0.0006
610.0582	0.0064
610.2481	-0.0008
610.4379	0.0111
610.6278	0.0039
610.8176	0.0158
611.0074	0.0063
611.1971	0.0038
611.3869	0.0085
611.5766	-0.0011
611.7664	0.0066
611.9561	0.0129
612.1458	0.0104
612.3354	0.0036
612.5251	0.0068
612.7147	0.0085
612.9044	0.0007
613.094	0.0062
613.2836	-0.001
613.4731	-0.002
613.6627	0.0072
613.8522	0.0071
614.0417	0.0092
614.2313	0.0066
614.4207	0.0116
614.6102	0.0075
614.7997	0.0117
614.9891	0.0091
615.1785	0.0001
615.3679	0.0059
615.5573	0.0065
615.7467	0.0043
615.9361	-0.0008
616.1254	0.0145
616.3147	0.0091
616.504	0.001
616.6933	0.0089
616.8826	-0.0078
617.0718	0.0094
617.2611	0.0029
617.4503	0.0066
617.6395	0.0088
617.8287	0.0152
618.0179	0.0065
618.207	0.0083
618.3961	0.0039
618.5853	0.0049
618.7744	0.0105
618.9634	0.0117
619.1525	0.0075
619.3416	0.0014
619.5306	0.005
619.7196	0.013
619.9086	0.003
620.0976	-0.0024
620.2866	0.0094
620.4755	0.0015
620.6645	0.0113
620.8534	0.0092
621.0423	0.0041
621.2312	-0.0106
621.42	0.009
621.6089	0.0002
621.7977	-0.0002
621.9865	0.0069
622.1753	0.0008
622.3641	0.0028
622.5529	0.0001
622.7416	0.0051
622.9303	0.0017
623.1191	0.0059
623.3078	0.0004
623.4964	0.0027
623.6851	0.0089
623.8737	0.0052
624.0624	-0.0103
624.251	-0.0052
624.4396	-0.0015
624.6282	0.0116
624.8167	0.0003
625.0053	0.0031
625.1938	0.0053
625.3823	0.0115
625.5708	0.0006
625.7593	0.0049
625.9477	0.0035
626.1362	0.0067
626.3246	0.0083
626.513	-0.0029
626.7014	0.0107
626.8898	0.0111
627.0781	-0.0017
627.2665	0.0068
627.4548	-0.0103
627.6431	0.0081
627.8314	0.0094
628.0197	0.0059
628.2079	-0.0032
628.3962	0.0005
628.5844	0.0068
628.7726	0.0037
628.9608	0.0147
629.1489	0.0041
629.3371	0.0018
629.5252	0.0145
629.7134	0.0058
629.9015	0.0156
630.0895	-0.0073
630.2776	0.0153
630.4657	0.0081
630.6537	0.0087
630.8417	-0.0023
631.0297	0.0083
631.2177	0.0072
631.4057	0.0017
631.5936	-0.0051
631.7815	0.0087
631.9695	0.0133
632.1574	0.0094
632.3452	0.0182
632.5331	-0.0024
632.7209	0.0091
632.9088	-0.0046
633.0966	0.0405
633.2844	0.0046
633.4722	0.0043
633.6599	0.0179
633.8477	-0.0064
634.0354	0.0157
634.2231	-0.0112
634.4108	-0.0033
634.5985	0.0092
634.7861	0.0132
634.9738	-0.0062
635.1614	0.0163
635.349	0.0112
635.5366	0.0147
635.7242	0.0106
635.9117	0.0076
636.0993	0.0072
636.2868	-0.0049
636.4743	0.0074
636.6618	-0.002
636.8492	0.0195
637.0367	-0.0077
637.2241	0.0124
637.4115	0.0237
637.5989	-0.0128
637.7863	0.0252
637.9737	0.0007
638.161	-0.0104
638.3484	-0.0137
638.5357	0.0041
638.723	0.0119
638.9103	-0.0101
639.0975	0.0188
639.2848	0.0174
639.472	0.0021
639.6592	-0.0161
639.8464	-0.0042
640.0336	-0.0006
640.2208	0.0041
640.4079	-0.0174
640.595	-0.0006
640.7821	0.0141
640.9692	0.0016
641.1563	0.0122
641.3434	0.0103
641.5304	0.0061
641.7174	0.0152
641.9044	0.0048
642.0914	0.0265
642.2784	-0.0087
642.4653	0.0007
642.6523	0.016
642.8392	0.0121
643.0261	0.0183
643.213	0.0037
643.3999	0.0194
643.5867	0.0231
643.7735	0.0036
643.9604	0.0299
644.1472	0.0345
644.3339	0.0058
644.5207	0.0004
644.7075	0.0017
644.8942	0.0012
645.0809	0.0009
645.2676	-0.0182
645.4543	0.0034
645.6409	0.0109
645.8276	-0.0072
646.0142	-0.0019
646.2008	0.0003
646.3874	-0.0171
646.574	-0.004
646.7605	0.0117
646.9471	0.0095
647.1336	-0.0227
647.3201	0.001
647.5066	0.0098
647.6931	-0.0065
647.8795	0.0138
648.0659	0.0042
648.2524	0.014
648.4388	0.0029
648.6252	0.0119
648.8115	0.0074
648.9979	0.0073
649.1842	-0.0005
649.3705	-0.0004
649.5568	-0.002
649.7431	-0.0013
649.9294	-0.0119
650.1156	-0.0092
650.3018	0.0206
650.488	0.007
650.6742	0.0226
650.8604	0.0037
651.0466	-0
651.2327	0.003
651.4188	-0.0023
651.6049	0.0181
651.791	0.0238
651.9771	0.0155
652.1632	0.008
652.3492	-0.0045
652.5352	0.0106
652.7212	0.0095
652.9072	-0.0095
653.0932	0.0113
653.2791	0.0144
653.465	0.0112
653.651	0.0016
653.8369	-0.0017
654.0227	-0.0026
654.2086	0.0054
654.3944	0.0056
654.5803	-0.0062
654.7661	0.0039
654.9519	0.0016
655.1377	0
655.3234	0
655.5092	0
655.6949	0
655.8806	0
656.0663	0
656.2519	0
656.4376	0
656.6232	0
656.8088	0
656.9945	0
657.18	0
657.3656	0
657.5511	0
657.7367	0
657.9222	0
658.1077	0
658.2932	0
658.4786	0
658.6641	0
658.8495	0
659.0349	0
659.2203	0
659.4057	0
659.591	0.1537
659.7764	0.0302
659.9617	0.0131
660.147	0.0007
660.3323	0.0073
660.5176	0.0077
660.7028	-0.0045
660.888	-0.0032
661.0733	0.0099
661.2585	-0.003
661.4436	0.0196
661.6288	0.0193
661.8139	0.0117
661.9991	-0.0089
662.1842	-0.0084
662.3693	-0.0028
662.5544	0.0013
662.7394	0.0226
662.9245	-0.0066
663.1095	0.0011
663.2945	-0.0133
663.4795	-0.0081
663.6644	0.0088
663.8494	0.0049
664.0343	0.0106
664.2193	0.0039
664.4042	-0.0016
664.589	0.017
664.7739	0.0017
664.9587	-0.0054
665.1436	0.0167
665.3284	0.0022
665.5132	-0.0011
665.698	0.0152
665.8827	0.0251
666.0675	-0.023
666.2522	0.0248
666.4369	-0.0013
666.6216	0.012
666.8063	0.0197
666.9909	0.0034
667.1756	-0.0007
667.3602	-0.0043
667.5448	0.0148
667.7294	0.0103
667.9139	-0.023
668.0985	-0.0054
668.283	-0.0051
668.4675	0.0495
668.652	0.0204
668.8365	-0.0069
669.0209	0.0061
669.2054	0.0122
669.3898	0.0197
669.5742	0.0062
669.7586	0.0131
669.943	0.0228
670.1273	-0.0044
670.3117	0.0322
670.496	-0.0083
670.6803	-0.0067
670.8646	-0.0093
671.0488	0.0229
671.2331	-0.0154
671.4173	0.0024
671.6015	0.0083
671.7857	0.014
671.9699	0.0059
672.1541	-0.0157
672.3382	-0.0062
672.5223	0.0052
672.7064	0.0131
672.8905	-0.0126
673.0746	-0.0005
673.2587	0.0356
673.4427	0.0089
673.6267	0.0223
673.8107	0.0135
673.9947	0.0184
674.1787	0.011
674.3626	0.0063
674.5465	0.0051
674.7304	-0.0033
674.9143	-0.0061
675.0982	-0
675.2821	0.0128
675.4659	-0.0104
675.6497	0.0136
675.8335	0.009
676.0173	-0.0181
676.2011	0.0136
676.3849	-0.0069
676.5686	0.0219
676.7523	0.0039
676.936	0.0108
677.1197	-0.0087
677.3034	0.0341
677.487	-0.0012
677.6706	0.0053
677.8542	0.01
678.0378	0.0275
678.2214	0.0004
678.405	0.0273
678.5885	0.0131
678.772	0.0102
678.9555	-0.0017
679.139	0.0132
679.3225	-0.0058
679.5059	0.0081
679.6894	0.006
679.8728	-0.0174
680.0562	0.0198
680.2395	-0.001
680.4229	0.0012
680.6062	0.0011
680.7896	-0.0177
680.9729	0.0177
681.1562	0.01
681.3394	-0.0014
681.5227	-0.001
681.7059	0.0133
681.8891	0.0157
682.0723	0.0062
682.2555	0.004
682.4387	-0.0013
682.6218	0.022
682.805	0.0199
682.9881	0.0299
683.1712	0.0204
683.3542	0.0181
683.5373	-0.014
683.7203	0.0015
683.9034	-0.0064
684.0864	0.0025
684.2694	0.002
684.4523	0.0082
684.6353	0.0046
684.8182	0.0049
685.0011	-0.0021
685.184	0.0021
685.3669	0.0182
685.5498	0.004
685.7326	-0.008
685.9154	0.0034
686.0982	0.0241
686.281	0.0068
686.4638	0.0053
686.6465	-0.0126
686.8293	-0.0095
687.012	0.0014
687.1947	0.007
687.3774	-0.006
687.56	-0.013
687.7427	-0.0104
687.9253	-0.0214
688.1079	-0.003
688.2905	-0.0108
688.4731	0.0232
688.6556	0.0056
688.8382	-0.0147
689.0207	0.0266
689.2032	0.0148
689.3857	-0.0076
689.5681	0.01
689.7506	0.0256
689.933	0.004
690.1154	0.0158
690.2978	0.0266
690.4802	0.0182
690.6626	0.014
690.8449	0.0059
691.0272	0.0035
691.2095	-0.0188
691.3918	0.013
691.5741	0.0068
691.7563	0.0097
691.9386	0.0308
692.1208	0.0096
692.303	-0.0028
692.4852	-0.0229
692.6673	0.0272
692.8495	-0.0184
693.0316	-0.0003
693.2137	0.0126
693.3958	0.0147
693.5778	0.0071
693.7599	-0.0017
693.9419	0.0031
694.1239	0.0041
694.3059	0.016
694.4879	-0.0035
694.6699	-0.002
694.8518	-0.0075
695.0337	0.0146
695.2157	0.0092
695.3975	0.0162
695.5794	-0.0218
695.7613	0.0012
695.9431	-0.0163
696.1249	0.0304
696.3067	-0.0037
696.4885	0.0157
696.6703	0.0224
696.852	-0.0081
697.0337	0.0305
697.2154	0.007
697.3971	0.0118
697.5788	0.0215
697.7605	0.0024
697.9421	0.015
698.1237	0.0199
698.3053	-0.0102
698.4869	0.0051
698.6685	0.0048
698.85	0.0198
699.0315	-0.0053
699.213	0.0086
699.3945	0.0197
699.576	0.011
699.7575	0.0277
699.9389	0.0035
700.1203	0.0166
700.3017	0.0159
700.4831	0.0203
700.6645	0.0425
700.8458	0.0008
701.0271	-0.0008
701.2084	0.0015
701.3897	0.0067
701.571	0.0053
701.7523	0.0274
701.9335	0.0378
702.1147	0.0149
702.2959	-0.0151
702.4771	-0.0106
702.6583	-0.0063
702.8394	-0.0166
703.0205	0.0268
703.2016	-0.0124
703.3827	-0.0077
703.5638	0.013
703.7449	0.0034
703.9259	0.0143
704.1069	-0.02
704.2879	0.0171
704.4689	-0.026
704.6499	0.0101
704.8308	0.0079
705.0117	0.0262
705.1927	0.0385
705.3735	0.0241
705.5544	-0.0014
705.7353	-0.0229
705.9161	-0.0162
706.0969	0.0014
706.2777	-0.0089
706.4585	0.0072
706.6393	0.0211
706.82	0.0203
707.0007	-0.0142
707.1815	0.0026
707.3621	0.0241
707.5428	0.0045
707.7235	-0.0081
707.9041	0.0015
708.0847	0.0002
708.2653	0.0167
708.4459	-0.005
708.6265	-0.005
708.807	0.0031
708.9875	-0.0037
709.168	-0.0077
709.3485	0.0065
709.529	0.0165
709.7095	-0.0028
709.8899	-0.0039
710.0703	0.0174
710.2507	0.0078
710.4311	-0.0297
710.6115	0.0357
710.7918	0.018
710.9721	-0.012
711.1524	-0.0124
711.3327	-0.0113
711.513	0.002
711.6932	-0.0109
711.8735	0.0162
712.0537	-0.0176
712.2339	0.0135
712.4141	0.0246
712.5942	-0.0004
712.7744	0.0297
712.9545	0.0103
713.1346	0.027
713.3147	0.021
713.4947	-0.0149
713.6748	0.0159
713.8548	0.0223
714.0348	0.0179
714.2148	0.0005
714.3948	0.0241
714.5748	0.0114
714.7547	0.0326
714.9346	0.0148
715.1145	0.0053
715.2944	-0.0146
715.4743	0.0057
715.6541	-0.0148
715.834	0.0409
716.0138	0.0125
716.1936	0.0129
716.3733	0.0263
716.5531	-0.0043
716.7328	0.011
716.9126	-0.0075
717.0923	-0.0362
717.2719	0.0266
717.4516	0.0177
717.6312	-0.0125
717.8109	0.0387
717.9905	0.0325
718.1701	0.0014
718.3496	0.0107
718.5292	-0.0192
718.7087	-0.0056
718.8882	0.025
719.0677	-0.0051
719.2472	0.0061
719.4267	0.0063
719.6061	-0.033
719.7856	0.0116
719.965	0.0171
720.1443	-0.0288
720.3237	-0.04
720.5031	0.0353
720.6824	-0.0157
720.8617	-0.0012
721.041	0.0197
721.2203	-0.0163
721.3995	-0.0031
721.5788	0.0043
721.758	0.0092
721.9372	0.0085
722.1164	-0.0106
722.2956	0.0053
722.4747	0.0256
722.6538	0.008
722.8329	0.0051
723.012	-0.0179
723.1911	0.0348
723.3702	0.0129
723.5492	-0.003
723.7282	-0.0039
723.9072	0.0103
724.0862	-0.0128
724.2652	0.0375
724.4441	0.0174
724.623	-0.0093
724.8019	-0.0022
724.9808	0.0114
725.1597	-0.0061
725.3385	0.0109
725.5174	-0.0004
725.6962	0.0007
725.875	0.0141
726.0538	-0.0126
726.2325	0.0124
726.4112	-0.0265
726.59	-0.0099
726.7687	-0.0118
726.9474	0.0177
727.126	0.0154
727.3047	-0.0136
727.4833	0.0291
727.6619	0.0083
727.8405	-0.0058
728.0191	0.0274
728.1976	0.0021
728.3762	0.0142
728.5547	-0.0104
728.7332	0.0237
728.9116	0.0201
729.0901	-0.0025
729.2686	0.0066
729.447	-0.0159
729.6254	0.0196
729.8038	0.006
729.9821	-0.0224
730.1605	0.0074
730.3388	0.0037
730.5171	0.0202
730.6954	0.0012
730.8737	0.0104
731.0519	-0.0211
731.2302	0.0023
731.4084	0.0247
731.5866	-0.0012
731.7648	0.0112
731.9429	0.0217
732.1211	-0.0123
732.2992	-0.006
732.4773	0.0025
732.6554	-0.0189
732.8335	0.0305
733.0115	0.0144
733.1896	0.0056
733.3676	0.0167
733.5456	0.0027
733.7235	0.0038
733.9015	-0.0041
734.0794	-0.0136
734.2574	-0.0167
734.4353	0.0055
734.6131	0.005
734.791	0.0039
734.9689	-0.0173
735.1467	-0.0112
735.3245	0.0062
735.5023	0.0049
735.68	-0.0089
735.8578	0.0122
736.0355	0.0132
736.2132	0.0077
736.3909	0.0115
736.5686	-0.0025
736.7463	-0.0234
736.9239	0.0198
737.1015	0.028
737.2791	-0.0022
737.4567	0.007
737.6343	0.0083
737.8118	0.0085
737.9894	-0.0059
738.1669	-0.0118
738.3444	0.026
738.5218	-0.0118
738.6993	-0.0012
738.8767	0.0007
739.0541	-0.0099
739.2315	-0.0212
739.4089	0.0191
739.5863	-0.0066
739.7636	-0.0052
739.9409	0.0014
740.1182	-0.0118
740.2955	0.0178
740.4728	0.0056
740.65	-0.0038
740.8272	-0.0097
741.0044	0.001
741.1816	0.002
741.3588	-0.017
741.5359	-0.0309
741.7131	-0.0114
741.8902	0.0156
742.0673	-0.005
742.2444	0.0233
742.4214	0.0088
742.5985	0.0008
742.7755	0.0017
742.9525	-0.0271
743.1295	-0.0367
743.3064	0.0014
743.4834	0.011
743.6603	0.0436
743.8372	-0.0509
744.0141	0.0095
744.191	0.0147
744.3678	-0.0393
744.5446	0.01
744.7215	0.0181
744.8982	0.0197
745.075	0.0366
745.2518	-0.0032
745.4285	0.0352
745.6052	-0.029
745.7819	-0.0028
745.9586	-0.0067
746.1353	-0.0362
746.3119	-0.0033
746.4885	0.0238
746.6651	-0.0018
746.8417	-0.0051
747.0183	0.0227
747.1948	0.0194
747.3714	0.0226
747.5479	0.0254
747.7244	0.0232
747.9008	-0.0034
748.0773	0.0296
748.2537	0.0027
748.4301	0.0374
748.6065	-0.0027
748.7829	0.0105
748.9593	0.0163
749.1356	0.0013
749.3119	0.0051
749.4882	0.0104
749.6645	0.0116
749.8408	0.0149
750.017	-0.0012
750.1933	-0.0127
750.3695	0.0231
750.5457	0.0064
750.7218	-0.0089
750.898	-0.0194
751.0741	-0.0035
751.2502	0.0049
751.4263	-0.0103
751.6024	0.0075
751.7784	0.0035
751.9545	0.0082
752.1305	-0.006
752.3065	0.005
752.4825	0.002
752.6584	0.0106
752.8344	-0.007
753.0103	0.0032
753.1862	0.0321
753.3621	0.0026
753.5379	-0.0037
753.7138	0.0172
753.8896	-0.0077
754.0654	0.0085
754.2412	0.0238
754.417	0.006
754.5927	0.0365
754.7685	0.0204
754.9442	0.024
755.1199	0.0026
755.2956	0.0111
755.4712	0.0075
755.6469	0.0084
755.8225	0.0033
755.9981	0.0146
756.1736	0.0024
756.3492	-0.0092
756.5248	0.0275
756.7003	0.0059
756.8758	0.0067
757.0513	0.0065
757.2267	-0.0054
757.4022	-0.0104
757.5776	-0.012
757.753	0.0373
757.9284	0.007
758.1038	0.0129
758.2791	0.0132
758.4545	0.002
758.6298	-0.0014
758.8051	-0
758.9803	-0.0026
759.1556	-0.0115
759.3308	0.0126
759.506	-0.002
759.6812	0.0073
759.8564	0.0067
760.0316	-0.0073
760.2067	0.015
760.3819	0.0014
760.557	0.0081
760.732	-0.0142
760.9071	0.0083
761.0821	-0.0105
761.2572	0.0247
761.4322	0.0095
761.6072	0.0007
761.7821	-0.0209
761.9571	0.005
762.132	0.0042
762.3069	0.009
762.4818	0.0348
762.6567	0.0179
762.8316	0.0101
763.0064	0.0003
763.1812	0.0049
763.356	-0.0347
763.5308	0.0054
763.7055	-0.0019
763.8803	-0.0138
764.055	0.0072
764.2297	-0.0153
764.4044	0.0137
764.579	0.0097
764.7537	0.0035
764.9283	0.0026
765.1029	0.0066
765.2775	0.0079
765.4521	-0.0059
765.6266	0.0015
765.8011	-0.0124
765.9756	0.0058
766.1501	0.0115
766.3246	0.0087
766.4991	0.0087
766.6735	0.0276
766.8479	-0.0053
767.0223	0.006
767.1967	0.0108
767.371	0.0189
767.5454	0.0285
767.7197	0.0194
767.894	-0.0147
768.0683	0.0187
768.2425	-0.0014
768.4168	0.0201
768.591	0.0252
768.7652	0.0019
768.9394	-0.0094
769.1135	-0.0026
769.2877	0.0097
769.4618	0.0311
769.6359	-0.0034
769.81	0.0512
769.984	0.0034
770.1581	0.0056
770.3321	0.0079
770.5061	-0.0075
770.6801	0.0303
770.8541	0.0154
771.028	0.0141
771.202	0.0227
771.3759	0.0042
771.5498	-0.0157
771.7236	0.0081
771.8975	0.0087
772.0713	0.0163
772.2451	-0.0196
772.4189	0.0108
772.5927	-0.0449
772.7665	-0.0133
772.9402	0.0111
773.1139	0.0162
773.2876	0.01
773.4613	0.0154
773.635	0.0182
773.8086	0.0327
773.9822	0.0375
774.1558	0.0092
774.3294	-0.0154
774.503	-0.0269
774.6765	0.0383
774.8501	0.0075
775.0236	0.0521
775.1971	0.0366
775.3705	-0.0108
775.544	-0.0331
775.7174	0.0366
775.8908	-0.0526
776.0642	0.0184
776.2376	0.0292
776.4109	-0.0283
776.5843	0.0262
776.7576	-0.0117
776.9309	-0.01
777.1041	-0.0471
777.2774	0.0074
777.4506	-0.0314
777.6238	-0.0009
777.797	0.0428
777.9702	0.0235
778.1434	0.0049
778.3165	0.0006
778.4896	-0.0399
778.6627	0.009
778.8358	-0.0231
779.0089	-0.0006
779.1819	0.022
779.3549	0.0087
779.5279	-0.0052
779.7009	0.0447
779.8739	0.0533
780.0468	0.0056
780.2197	-0.0253
780.3926	-0.023
780.5655	-0.0153
780.7384	-0.0157
780.9112	0.0123
781.0841	0.0448
781.2569	0.0151
781.4297	0.0157
781.6024	0.0148
781.7752	0.0252
781.9479	0.0417
782.1206	0.0117
782.2933	-0.0029
782.466	0.0436
782.6386	-0.0174
782.8113	-0.0341
782.9839	-0.0128
783.1565	-0.0006
783.329	-0.0248
783.5016	-0.0124
783.6741	-0.0127
783.8466	0.0233
784.0191	0.0529
784.1916	-0.0048
784.3641	-0.0415
784.5365	0.0084
784.7089	-0.0283
784.8813	0.0474
785.0537	0.0103
785.2261	0.0007
785.3984	-0.0035
785.5707	-0.0131
785.743	-0.0138
785.9153	-0.0124
786.0876	-0.0061
786.2598	-0.014
786.432	0.0244
786.6042	0.0258
786.7764	-0.0056
786.9486	0.0119
787.1207	0.0267
787.2928	0.0254
787.4649	-0.0058
787.637	0.0143
787.8091	0.013
787.9811	0.0379
788.1532	0.0139
788.3252	0.0029
788.4972	-0.0044
788.6691	0.0064
788.8411	-0.0148
789.013	0.012
789.1849	-0.0195
789.3568	0.0111
789.5287	0.0643
789.7005	-0.0231
789.8723	-0.0652
790.0442	0.0049
790.2159	0.032
790.3877	0.0508
790.5595	0.0611
790.7312	0.006
790.9029	0.0124
791.0746	0.0567
791.2463	0.0058
791.4179	0.0204
791.5896	0.0059
791.7612	-0.0139
791.9328	0.0062
792.1044	0.0505
792.2759	-0.0183
792.4474	-0.0138
792.619	0.0102
792.7905	0.0662
792.9619	0.0125
793.1334	0.0392
793.3048	0.058
793.4762	0.0404
793.6476	-0.0451
793.819	-0.0215
793.9904	-0.0096
794.1617	-0.0266
794.333	0.0147
794.5043	0.0098
794.6756	0.0005
794.8469	0.0244
795.0181	-0.01
795.1893	0.0322
795.3605	0.0212
795.5317	0.0364
795.7029	-0.041
795.874	0.0027
796.0452	0.0337
796.2163	0.0408
796.3873	0.0922
796.5584	0.0473
796.7294	-0.0776
796.9005	0.0088
797.0715	0.0062
797.2425	0.062
797.4134	0.0585
797.5844	0.0112
797.7553	-0.0535
797.9262	0.0048
798.0971	0.0587
798.2679	-0.0191
798.4388	0.045
798.6096	0.0474
798.7804	0.0148
798.9512	0.044
799.122	0.0574
799.2927	0.0587
799.4635	0.0436
799.6342	-0.1008
799.8049	0.1237
799.9755	-0.0344
800.1462	-0.0082
800.3168	0.0228
800.4874	-0.1059
800.658	0.0279
800.8286	0.1024
800.9991	0.0308
801.1696	-0.0116
801.3402	-0.0274
801.5106	-0.0267
801.6811	0.0753
801.8516	0.0383
802.022	-0.0257
802.1924	0.0576
802.3628	0.0303
802.5332	0.0311
802.7035	0.1384
802.8739	0.0279
803.0442	-0.0754
803.2145	0.0182
803.3847	0.0438
803.555	0.045
803.7252	-0.0019
803.8954	-0.0767
804.0656	-0.05
804.2358	0.0398
804.4059	0.0287
804.5761	0.0499
804.7462	0.0875
804.9163	-0.0186
805.0864	-0.0852
805.2564	0.0056
805.4264	-0.0034
805.5965	0.08
805.7665	-0.0209
805.9364	0.0061
806.1064	-0.0105
806.2763	0.0133
806.4462	0.0227
806.6161	0.0196
806.786	-0.0346
806.9559	-0.0346
807.1257	0.0102
807.2955	-0.0347
807.4653	0.0598
807.6351	0.0586
807.8048	0.0383
807.9746	0.0215
808.1443	-0.0288
808.314	0.048
808.4837	0.0203
808.6533	0.0014
808.8229	0.0955
808.9926	0.0222
809.1622	0.0277
809.3317	-0.105
809.5013	-0.0145
809.6708	-0.0337
809.8403	0.0231
810.0098	0.0506
810.1793	-0.0186
810.3488	-0.0441
810.5182	0.1186
810.6876	0.0278
810.857	-0.0196
811.0264	-0.0719
811.1958	0.0814
811.3651	0.0141
811.5344	0.0081
811.7037	0.0843
811.873	0.0927
812.0422	-0.0968
812.2115	0.0188
812.3807	-0.0608
812.5499	0.1536
812.7191	-0.1
812.8882	-0.0449
813.0574	0.0103
813.2265	-0.0634
813.3956	-0.0342
813.5646	0.0377
813.7337	-0.0142
813.9027	-0.0771
814.0718	0.0683
814.2407	0.0637
814.4097	0.0373
814.5787	0.0819
814.7476	0.0102
814.9165	-0.0091
815.0854	-0.0259
815.2543	0.0708
815.4232	0.1393
815.592	0.0448
815.7608	-0.1375
815.9296	0.0168
816.0984	0.0104
816.2671	-0.2381
816.4359	0.1284
816.6046	-0.0003
816.7733	0.0244
816.942	0.0245
817.1106	0.0941
817.2793	-0.0718
817.4479	0.029
817.6165	0.0619
817.785	0.0043
817.9536	-0.1266
818.1221	0.0913
818.2906	0.0346
818.4591	0.0592
818.6276	-0.0309
818.7961	0.0431
818.9645	0.037
819.1329	0.3371
819.3013	-0.0309
819.4697	-0.037
819.638	-0.0669
819.8064	-0.0697
819.9747	0.0302
820.143	-0.0764
820.3113	0.1056
820.4795	0.1107
820.6477	0.0918
820.816	0.0787
820.9842	0.0703
821.1523	0.0187
821.3205	-0.0141
821.4886	-0.0202
821.6567	-0.0771
821.8248	0.1388
821.9929	-0.0943
822.1609	0.114
822.329	0.0918
822.497	0.0097
822.665	-0.0876
822.833	-0.0294
823.0009	0.0599
823.1688	0.2577
823.3367	-0.1286
823.5046	0.0579
823.6725	-0.1271
823.8404	0.1203
824.0082	-0.0773
824.176	0.1268
824.3438	0.3329
824.5116	0.0029
824.6793	0.0517
824.847	0.0296
825.0147	0.565
825.1824	0.0135
825.3501	0.1268
825.5177	-0.0402
825.6854	-0.1295
825.853	0.0139
826.0206	0.0106
826.1881	0.0145
826.3557	-0.1148
826.5232	0.284
826.6907	0.0315
826.8582	0.1576
827.0257	0.1027
827.1931	0.0555
827.3605	0.0314
827.528	0.0319
827.6953	-0.1037
827.8627	0.0481
828.03	0.1233
828.1974	0.0805
828.3647	0.0797
828.532	0.0766
828.6992	0.3191
828.8665	-0.1172
829.0337	-0.0363
829.2009	-0.0119
829.3681	-0.0159
829.5352	-0.3155
829.7024	0.471
829.8695	-0.0401
830.0366	0.0366
830.2037	0.0247
830.3707	0.0663
830.5378	-0.0669
830.7048	-0.0689
830.8718	0.1472
831.0388	-0.0212
831.2057	0.009
831.3727	-0.2162
831.5396	0.103
831.7065	-0.9874
831.8734	0.0668
832.0402	0.3178
832.2071	-0.5958
832.3739	0.0609
832.5407	-1.676
832.7075	0.2
832.8742	0.0871
833.041	-0.1006
833.2077	-0.0235
833.3744	0.1546
833.541	0.1882
833.7077	-0.0588
833.8743	0.0927
834.0409	0.0351
834.2075	0.1173
834.3741	-0.2737
834.5407	0.5361
834.7072	-0.016
834.8737	0.0552
835.0402	0.8057
835.2067	-0.0262
835.3731	-0.1456
835.5395	0.0071
835.706	-0.1085
835.8723	0.0429
836.0387	0.5067
836.2051	-0.1499
836.3714	0.0736
836.5377	-0.06
836.704	0.119
836.8703	-0.1923
837.0365	-0.7294
837.2027	0.1848
837.3689	0.2634
837.5351	0.2442
837.7013	-0.2509
837.8674	-0
838.0335	-0.0056
838.1997	-0.1934
838.3657	-0
838.5318	-0.5963
838.6978	-0
838.8639	-0.5613
839.0299	0.0818
839.1958	0.1929
839.3618	-0.0142
839.5277	-0.1115
839.6937	-0.2303
839.8596	-0.3345
840.0254	-0.1548
840.1913	0.0969
840.3571	-0.2832
840.523	-1.3502
840.6888	-0.0991
840.8545	-0.0311
841.0203	0.411
841.186	0.0222
841.3517	-0.2385
841.5174	0.0048
841.6831	0.5296
841.8488	-0.0914
842.0144	0.3134
842.18	0.3906
842.3456	-0.7733
842.5112	-0
842.6767	-0.1703
842.8422	-0
843.0077	-0.1034
843.1732	-0.6243
843.3387	-0.0962
843.5042	-0
843.6696	-0.0961
843.835	-0.2221
844.0004	-0.3185
844.1657	-0
844.3311	0.9708
844.4964	-0.4923
844.6617	0.0969
844.827	-0
844.9923	0.1622
845.1575	-0.2951
845.3227	0.5102
845.4879	-0.4524
845.6531	-0
845.8183	0.2201
845.9834	-0
846.1485	0.0048
846.3136	0.0351
846.4787	-0
846.6438	-0.3883
846.8088	0.5724
846.9738	-0
847.1388	0.2483
847.3038	0.0934
847.4687	-0
847.6337	-0.462
847.7986	-0.2678
847.9635	-0.145
848.1284	-0
848.2932	-0.0234
848.458	-0
848.6228	0.1539
848.7876	-0
848.9524	-0.4868
849.1172	-1.2621
849.2819	-0.9481
849.4466	0.5395
849.6113	-0.1323
849.7759	-0
849.9406	0.0301
850.1052	-1.1746
850.2698	-0.3647
850.4344	-0.3151
850.599	0.8305
850.7635	0.1056
850.928	-0
851.0925	0.261
851.257	0.2419
851.4215	0.0435
851.5859	0.5027
851.7503	-0
851.9147	-0.058
852.0791	0.0948
852.2434	1.07
852.4078	-0.5628
852.5721	0.5418
852.7364	0.6336
852.9007	-0.0804
853.0649	-0
853.2291	0.059
853.3934	-0
853.5575	-0.0551
853.7217	0.4478
853.8859	-0.3495
854.05	-0.3309
854.2141	0.5801
854.3782	0.1369
854.5423	-0.3309
854.7063	0.0484
854.8703	-0.1725
855.0343	-0.2288
855.1983	0.0388
855.3623	0.3972
855.5262	-0
855.6901	-0.0005
855.854	0.4248
856.0179	-0.1116
856.1818	0.6639
856.3456	0.2322
856.5094	-0
856.6732	-0.3338
856.837	-1.3175
857.0008	-0
857.1645	-0.512
857.3282	-0.6915
857.4919	0.1252
857.6556	-0.5449
857.8192	-0.3198
857.9828	-0.3149
858.1465	-0.0831
858.31	-0
858.4736	-0.4642
858.6372	0.1665
858.8007	0.0383
858.9642	0.1824
859.1277	0.2947
859.2911	-0.4669
859.4546	-0
859.618	0.7912
859.7814	-0.2078
859.9448	-0
860.1081	-0.2586
860.2715	-0
860.4348	-0.0011
860.5981	0.7898
860.7614	-0
860.9246	0.4235
861.0879	-0.2106
861.2511	-0
861.4143	-0
861.5774	-0.2186
861.7406	0.3488
861.9037	-0.2363
862.0668	0.2352
862.2299	0.0301
862.393	-0
862.556	-0
862.7191	-0.5121
862.8821	1.3068
863.0451	0.1176
863.208	0.6738
863.371	-0.5083
863.5339	0.277
863.6968	0.4134
863.8597	-0.0545
864.0225	0.0917
864.1854	-0
864.3482	-1.0138
864.511	-0.1706
864.6737	0.1134
864.8365	-0.135
864.9992	-0.1588
865.1619	-0.6687
865.3246	0.0969
865.4873	-0
865.65	-0
865.8126	0.7597
865.9752	-0.4397
866.1378	0.3287
866.3004	0.0301
866.4629	-1.1187
866.6254	-0
866.7879	-0.3166
866.9504	-0
867.1129	-0.058
867.2753	-0.0986
867.4377	-0.1082
867.6001	-0.3612
867.7625	0.3504
867.9249	0.4692
868.0872	-0.0162
868.2495	0.0969
868.4118	-0
868.5741	-0
868.7363	-0.5575
868.8986	-0.5422
869.0608	1.2007
869.223	-0.4543
869.3851	-0
869.5473	-0.0337
869.7094	-0
869.8715	-0.6407
870.0336	0.0395
870.1957	-1.0612
870.3577	0.921
870.5197	-0.2628
870.6817	-0.7458
870.8437	-0.1853
871.0057	-0
871.1676	0.9193
871.3295	-0
871.4914	-0
871.6533	-0
871.8151	0.9364
871.977	-0
872.1388	-0
872.3006	-0.1713
872.4623	-0.9425
872.6241	0.2822
872.7858	0.5002
872.9475	-0
873.1092	0.1048
873.2709	0.3554
873.4325	-1.3697
873.5941	-0
873.7557	-0
873.9173	-0.1487
874.0789	0.3104
874.2404	-0
874.4019	0.3786
874.5634	-0
874.7249	-0
874.8863	-0
875.0478	0.485
875.2092	0.5877
875.3706	1.1797
875.5319	-0.5005
875.6933	-0
875.8546	-0
876.0159	0.3107
876.1772	-0.4908
876.3385	-0
876.4997	0.9352
876.6609	-0
876.8221	-0
876.9833	0.1375
877.1445	0.2753
877.3056	-1.2378
877.4667	0.4087
877.6278	0.7022
877.7889	-0.3227
877.9499	0.844
878.111	-0.0311
878.272	1.3688
878.433	-0
878.5939	-0
878.7549	-0.3483
878.9158	-0
879.0767	-0
879.2376	-0
879.3984	0.0144
879.5593	0.2489
879.7201	-0
879.8809	-0.3326
880.0417	-0.2023
880.2024	0.9241
880.3632	0.0358
880.5239	0.3331
880.6846	-0.4923
880.8452	0.6031
881.0059	-0
881.1665	0.1129
881.3271	-0
881.4877	0.0861
881.6483	-0
881.8088	-0
881.9693	-0
882.1298	-0
882.2903	-0
