Data from D4ACN5uM440nmA_Absorbance_13-50-25-538.txt Node
Date: Fri Feb 21 13:50:25 GMT 2025
User: LASERRRRR
Spectrometer: FLMT03099
Trigger mode: 0
Integration Time (sec): 1.500000E-2
Scans to average: 1
Electric dark correction enabled: true
Nonlinearity correction enabled: false
Boxcar width: 0
XAxis mode: Wavelengths
Number of Pixels in Spectrum: 3648
>>>>>Begin Spectral Data<<<<<
179.3399	-0.7494
179.5586	-0.7494
179.7771	-0.7494
179.9957	-0.1637
180.2143	-1.4267
180.4329	-0
180.6514	-0
180.8699	0.1341
181.0885	-0
181.307	-0.0252
181.5255	0.3134
181.744	-0.0398
181.9625	0.2901
182.181	-0.5086
182.3994	-0.3833
182.6179	-0
182.8363	-0
183.0547	-0.4154
183.2732	-0
183.4916	0.1832
183.71	0.3051
183.9284	0.0747
184.1467	0.3034
184.3651	-0.0851
184.5835	0.172
184.8018	0.1961
185.0201	0.1429
185.2385	0.2425
185.4568	0.0743
185.6751	0.0338
185.8934	0.0577
186.1117	-0.0689
186.3299	0.5043
186.5482	0.2156
186.7664	0.1919
186.9847	0.0491
187.2029	0.2902
187.4211	-0.0349
187.6393	0.0763
187.8575	0.0229
188.0757	0.4285
188.2939	0.0711
188.512	0.4117
188.7302	0.1312
188.9483	0.7487
189.1665	0.4349
189.3846	0.2596
189.6027	0.2562
189.8208	0.2511
190.0389	0.1795
190.257	0.0298
190.475	0.0489
190.6931	0.0921
190.9111	0.1145
191.1292	0.2396
191.3472	0.1091
191.5652	0.1802
191.7832	0.269
192.0012	0.1412
192.2192	0.1452
192.4371	0.0661
192.6551	0.0928
192.873	0.1955
193.091	0.257
193.3089	0.1367
193.5268	0.2722
193.7447	0.1795
193.9626	0.1935
194.1805	0.2851
194.3984	0.2177
194.6162	0.2643
194.8341	0.3305
195.0519	0.2132
195.2697	0.3104
195.4875	0.2843
195.7054	0.2617
195.9231	0.2056
196.1409	0.3103
196.3587	0.3277
196.5765	0.3127
196.7942	0.2805
197.012	0.3718
197.2297	0.3196
197.4474	0.4647
197.6651	0.3157
197.8828	0.4025
198.1005	0.3761
198.3182	0.4071
198.5358	0.409
198.7535	0.4257
198.9711	0.4293
199.1888	0.3808
199.4064	0.4124
199.624	0.3664
199.8416	0.3832
200.0592	0.3836
200.2767	0.3891
200.4943	0.4268
200.7119	0.393
200.9294	0.4166
201.1469	0.4452
201.3645	0.4283
201.582	0.4097
201.7995	0.4191
202.017	0.4141
202.2344	0.4323
202.4519	0.4131
202.6694	0.3938
202.8868	0.4068
203.1042	0.3815
203.3217	0.3685
203.5391	0.4024
203.7565	0.3502
203.9739	0.3668
204.1913	0.3459
204.4086	0.3484
204.626	0.3492
204.8433	0.3646
205.0607	0.3712
205.278	0.3528
205.4953	0.3707
205.7126	0.3688
205.9299	0.3257
206.1472	0.2987
206.3644	0.3453
206.5817	0.326
206.7989	0.3253
207.0162	0.3349
207.2334	0.3211
207.4506	0.32
207.6678	0.3286
207.885	0.2819
208.1022	0.3001
208.3194	0.3009
208.5365	0.2827
208.7537	0.3107
208.9708	0.2952
209.1879	0.2941
209.405	0.2663
209.6222	0.2474
209.8392	0.295
210.0563	0.2797
210.2734	0.2804
210.4905	0.2567
210.7075	0.2599
210.9245	0.2723
211.1416	0.2686
211.3586	0.2746
211.5756	0.251
211.7926	0.2478
212.0096	0.2697
212.2265	0.2636
212.4435	0.2786
212.6604	0.2433
212.8774	0.2236
213.0943	0.2542
213.3112	0.2442
213.5281	0.2639
213.745	0.2546
213.9619	0.2383
214.1788	0.2501
214.3956	0.2493
214.6125	0.2591
214.8293	0.2505
215.0461	0.2478
215.2629	0.2521
215.4798	0.2635
215.6965	0.241
215.9133	0.2392
216.1301	0.2328
216.3469	0.2589
216.5636	0.258
216.7803	0.2522
216.9971	0.2582
217.2138	0.2417
217.4305	0.2551
217.6472	0.2487
217.8639	0.2537
218.0805	0.2499
218.2972	0.2443
218.5138	0.2486
218.7305	0.2531
218.9471	0.2396
219.1637	0.2638
219.3803	0.2578
219.5969	0.2435
219.8135	0.2591
220.0301	0.2687
220.2466	0.256
220.4632	0.2617
220.6797	0.2521
220.8962	0.2618
221.1127	0.265
221.3292	0.2798
221.5457	0.2703
221.7622	0.2654
221.9787	0.2813
222.1951	0.2729
222.4116	0.2734
222.628	0.2799
222.8444	0.2819
223.0608	0.2851
223.2772	0.2883
223.4936	0.2824
223.71	0.2825
223.9264	0.2839
224.1427	0.2902
224.3591	0.2862
224.5754	0.2895
224.7917	0.2892
225.008	0.2819
225.2243	0.2895
225.4406	0.302
225.6569	0.298
225.8732	0.3059
226.0894	0.3034
226.3057	0.3066
226.5219	0.3129
226.7381	0.3203
226.9543	0.309
227.1705	0.3184
227.3867	0.3118
227.6029	0.3268
227.8191	0.3229
228.0352	0.3487
228.2513	0.3372
228.4675	0.3404
228.6836	0.3361
228.8997	0.3401
229.1158	0.3495
229.3319	0.351
229.548	0.3533
229.764	0.3542
229.9801	0.3603
230.1961	0.3638
230.4121	0.3705
230.6282	0.3839
230.8442	0.3828
231.0602	0.3781
231.2761	0.386
231.4921	0.3935
231.7081	0.3984
231.924	0.3982
232.14	0.3994
232.3559	0.4034
232.5718	0.4048
232.7877	0.4085
233.0036	0.4071
233.2195	0.4145
233.4353	0.4205
233.6512	0.4294
233.867	0.4244
234.0829	0.4235
234.2987	0.4134
234.5145	0.4322
234.7303	0.4329
234.9461	0.4465
235.1619	0.4454
235.3776	0.4308
235.5934	0.4335
235.8091	0.4454
236.0249	0.4444
236.2406	0.4476
236.4563	0.4551
236.672	0.4412
236.8877	0.4508
237.1034	0.451
237.319	0.4527
237.5347	0.4514
237.7503	0.4519
237.966	0.4584
238.1816	0.4509
238.3972	0.4543
238.6128	0.4661
238.8284	0.4624
239.0439	0.4682
239.2595	0.4663
239.475	0.4778
239.6906	0.4535
239.9061	0.4593
240.1216	0.4634
240.3371	0.4669
240.5526	0.4608
240.7681	0.4677
240.9836	0.4564
241.199	0.457
241.4145	0.4478
241.6299	0.4463
241.8453	0.4375
242.0607	0.4414
242.2761	0.4367
242.4915	0.4279
242.7069	0.414
242.9223	0.4129
243.1376	0.4041
243.353	0.4097
243.5683	0.397
243.7836	0.3854
243.9989	0.3817
244.2142	0.3794
244.4295	0.371
244.6448	0.363
244.86	0.3525
245.0753	0.3481
245.2905	0.34
245.5057	0.3305
245.721	0.3303
245.9362	0.3305
246.1514	0.3244
246.3665	0.3054
246.5817	0.3066
246.7969	0.2965
247.012	0.2959
247.2271	0.2922
247.4423	0.2815
247.6574	0.2827
247.8725	0.2783
248.0876	0.2669
248.3026	0.2708
248.5177	0.2525
248.7328	0.2511
248.9478	0.2538
249.1628	0.2521
249.3779	0.2408
249.5929	0.233
249.8079	0.2361
250.0228	0.2345
250.2378	0.2293
250.4528	0.2277
250.6677	0.2186
250.8827	0.2126
251.0976	0.2156
251.3125	0.2237
251.5274	0.2064
251.7423	0.206
251.9572	0.2116
252.172	0.2117
252.3869	0.2045
252.6017	0.2064
252.8166	0.1991
253.0314	0.201
253.2462	0.2024
253.461	0.1937
253.6758	0.1972
253.8906	0.1944
254.1053	0.1908
254.3201	0.1976
254.5348	0.1894
254.7496	0.1853
254.9643	0.1945
255.179	0.1792
255.3937	0.1905
255.6083	0.194
255.823	0.1838
256.0377	0.1806
256.2523	0.183
256.467	0.186
256.6816	0.1857
256.8962	0.1878
257.1108	0.19
257.3254	0.1771
257.54	0.1806
257.7545	0.1811
257.9691	0.1794
258.1836	0.176
258.3981	0.1825
258.6127	0.1748
258.8272	0.1843
259.0417	0.175
259.2561	0.1812
259.4706	0.1772
259.6851	0.1775
259.8995	0.1751
260.114	0.1764
260.3284	0.1741
260.5428	0.1765
260.7572	0.1783
260.9716	0.184
261.186	0.1796
261.4003	0.1786
261.6147	0.1729
261.829	0.1762
262.0433	0.1787
262.2577	0.1809
262.472	0.1734
262.6863	0.1806
262.9005	0.1817
263.1148	0.1715
263.3291	0.1795
263.5433	0.1825
263.7576	0.1792
263.9718	0.1768
264.186	0.1773
264.4002	0.1798
264.6144	0.1907
264.8286	0.1876
265.0427	0.1869
265.2569	0.1849
265.471	0.1864
265.6851	0.1822
265.8993	0.1803
266.1134	0.1806
266.3275	0.185
266.5415	0.1853
266.7556	0.1893
266.9697	0.1862
267.1837	0.1844
267.3978	0.1784
267.6118	0.1812
267.8258	0.1869
268.0398	0.1813
268.2538	0.1851
268.4677	0.1806
268.6817	0.1814
268.8957	0.172
269.1096	0.1718
269.3235	0.1785
269.5374	0.1779
269.7514	0.1789
269.9652	0.1799
270.1791	0.1762
270.393	0.1788
270.6068	0.1783
270.8207	0.1781
271.0345	0.1761
271.2483	0.168
271.4622	0.1757
271.676	0.18
271.8897	0.1764
272.1035	0.1801
272.3173	0.1768
272.531	0.1781
272.7448	0.1723
272.9585	0.1725
273.1722	0.1751
273.3859	0.1749
273.5996	0.1696
273.8133	0.1796
274.0269	0.1726
274.2406	0.1804
274.4542	0.1742
274.6679	0.1746
274.8815	0.1824
275.0951	0.1842
275.3087	0.1801
275.5223	0.1799
275.7358	0.186
275.9494	0.1792
276.1629	0.1868
276.3765	0.1791
276.59	0.1755
276.8035	0.1824
277.017	0.1804
277.2305	0.1863
277.444	0.1832
277.6574	0.1814
277.8709	0.1845
278.0843	0.1858
278.2978	0.1854
278.5112	0.1824
278.7246	0.1817
278.938	0.1858
279.1513	0.1896
279.3647	0.1827
279.5781	0.1846
279.7914	0.1824
280.0047	0.1843
280.2181	0.1838
280.4314	0.1857
280.6447	0.1876
280.8579	0.1732
281.0712	0.1845
281.2845	0.1833
281.4977	0.189
281.711	0.1798
281.9242	0.1825
282.1374	0.1801
282.3506	0.1822
282.5638	0.1819
282.7769	0.1805
282.9901	0.1833
283.2033	0.1859
283.4164	0.1827
283.6295	0.1809
283.8426	0.1798
284.0557	0.1864
284.2688	0.1882
284.4819	0.1775
284.695	0.1891
284.908	0.1851
285.1211	0.1867
285.3341	0.1791
285.5471	0.1844
285.7601	0.1884
285.9731	0.1854
286.1861	0.1881
286.3991	0.1898
286.612	0.1844
286.825	0.1882
287.0379	0.1893
287.2508	0.1886
287.4637	0.1875
287.6766	0.1924
287.8895	0.1925
288.1024	0.1919
288.3152	0.1899
288.5281	0.1799
288.7409	0.1942
288.9538	0.187
289.1666	0.1903
289.3794	0.188
289.5922	0.1862
289.8049	0.1886
290.0177	0.1867
290.2304	0.1882
290.4432	0.1877
290.6559	0.1909
290.8686	0.1905
291.0813	0.192
291.294	0.1889
291.5067	0.1851
291.7194	0.1907
291.932	0.1838
292.1447	0.1909
292.3573	0.1855
292.5699	0.1972
292.7825	0.1834
292.9951	0.1886
293.2077	0.1872
293.4203	0.1881
293.6328	0.1883
293.8454	0.1904
294.0579	0.1904
294.2704	0.1979
294.4829	0.1864
294.6954	0.1876
294.9079	0.1858
295.1204	0.1876
295.3328	0.1898
295.5453	0.1909
295.7577	0.1892
295.9701	0.1916
296.1825	0.1944
296.3949	0.1863
296.6073	0.1845
296.8197	0.1902
297.0321	0.1951
297.2444	0.1904
297.4567	0.1923
297.6691	0.191
297.8814	0.1911
298.0937	0.1876
298.306	0.1886
298.5182	0.1899
298.7305	0.1964
298.9428	0.1886
299.155	0.1896
299.3672	0.1905
299.5794	0.1848
299.7916	0.195
300.0038	0.189
300.216	0.1873
300.4282	0.1914
300.6403	0.1984
300.8525	0.1903
301.0646	0.1871
301.2767	0.1926
301.4888	0.1842
301.7009	0.1927
301.913	0.1879
302.125	0.1911
302.3371	0.1888
302.5491	0.19
302.7612	0.1962
302.9732	0.1946
303.1852	0.1919
303.3972	0.1866
303.6092	0.1927
303.8211	0.1859
304.0331	0.1927
304.245	0.1909
304.457	0.19
304.6689	0.1862
304.8808	0.183
305.0927	0.1917
305.3046	0.1809
305.5164	0.1814
305.7283	0.1838
305.9401	0.171
306.152	0.1756
306.3638	0.1785
306.5756	0.1806
306.7874	0.1761
306.9992	0.1718
307.2109	0.1755
307.4227	0.1717
307.6344	0.1765
307.8462	0.1738
308.0579	0.174
308.2696	0.1706
308.4813	0.1636
308.693	0.1588
308.9046	0.1682
309.1163	0.1578
309.328	0.1616
309.5396	0.1537
309.7512	0.1567
309.9628	0.1535
310.1744	0.1534
310.386	0.1456
310.5976	0.1475
310.8091	0.1522
311.0207	0.1485
311.2322	0.1402
311.4437	0.1467
311.6552	0.1484
311.8667	0.152
312.0782	0.1456
312.2897	0.146
312.5012	0.1408
312.7126	0.1378
312.924	0.1379
313.1355	0.1367
313.3469	0.1356
313.5583	0.1409
313.7696	0.1347
313.981	0.1375
314.1924	0.1342
314.4037	0.1338
314.6151	0.129
314.8264	0.1398
315.0377	0.1342
315.249	0.1387
315.4603	0.1293
315.6716	0.1327
315.8828	0.1308
316.0941	0.1339
316.3053	0.1264
316.5165	0.1296
316.7277	0.1247
316.9389	0.1323
317.1501	0.1291
317.3613	0.1279
317.5724	0.1258
317.7836	0.1219
317.9947	0.1271
318.2058	0.1232
318.417	0.1271
318.6281	0.128
318.8391	0.1269
319.0502	0.1235
319.2613	0.1294
319.4723	0.1269
319.6834	0.1268
319.8944	0.1256
320.1054	0.1309
320.3164	0.1223
320.5274	0.1244
320.7383	0.1275
320.9493	0.132
321.1602	0.1256
321.3712	0.1282
321.5821	0.1198
321.793	0.1338
322.0039	0.1262
322.2148	0.1253
322.4257	0.1264
322.6365	0.1249
322.8474	0.1271
323.0582	0.1268
323.269	0.1279
323.4798	0.1285
323.6906	0.1244
323.9014	0.1185
324.1122	0.1226
324.3229	0.1312
324.5337	0.1327
324.7444	0.1252
324.9551	0.1294
325.1658	0.1264
325.3765	0.133
325.5872	0.132
325.7979	0.1238
326.0085	0.1264
326.2192	0.1329
326.4298	0.136
326.6404	0.1264
326.851	0.1312
327.0616	0.1316
327.2722	0.1329
327.4828	0.1338
327.6933	0.1364
327.9039	0.1319
328.1144	0.1302
328.3249	0.1394
328.5354	0.1307
328.7459	0.129
328.9564	0.1301
329.1669	0.1419
329.3773	0.1365
329.5878	0.1334
329.7982	0.1328
330.0086	0.1355
330.219	0.1331
330.4294	0.1373
330.6398	0.1384
330.8502	0.1388
331.0605	0.1359
331.2708	0.13
331.4812	0.1392
331.6915	0.1395
331.9018	0.1344
332.1121	0.1444
332.3224	0.1345
332.5326	0.1335
332.7429	0.1378
332.9531	0.1403
333.1633	0.1387
333.3735	0.1367
333.5837	0.1453
333.7939	0.1427
334.0041	0.1441
334.2143	0.1366
334.4244	0.1457
334.6346	0.137
334.8447	0.1358
335.0548	0.1401
335.2649	0.1424
335.475	0.1407
335.685	0.1465
335.8951	0.1432
336.1051	0.1465
336.3152	0.1491
336.5252	0.1418
336.7352	0.1377
336.9452	0.1442
337.1552	0.1374
337.3652	0.1393
337.5751	0.1397
337.7851	0.1447
337.995	0.1431
338.2049	0.1403
338.4148	0.1446
338.6247	0.1441
338.8346	0.1441
339.0445	0.1419
339.2543	0.1455
339.4642	0.1404
339.674	0.1434
339.8838	0.1402
340.0936	0.1464
340.3034	0.1406
340.5132	0.1353
340.7229	0.1438
340.9327	0.1496
341.1424	0.1439
341.3522	0.1467
341.5619	0.1512
341.7716	0.1501
341.9813	0.1546
342.1909	0.1482
342.4006	0.1511
342.6102	0.1487
342.8199	0.1519
343.0295	0.1438
343.2391	0.1491
343.4487	0.1565
343.6583	0.1662
343.8679	0.1472
344.0774	0.1602
344.287	0.1525
344.4965	0.1598
344.706	0.1558
344.9155	0.1557
345.125	0.1551
345.3345	0.1695
345.544	0.1636
345.7534	0.1645
345.9629	0.1612
346.1723	0.1594
346.3817	0.1611
346.5911	0.1643
346.8005	0.1698
347.0099	0.1635
347.2193	0.1756
347.4286	0.1723
347.638	0.1639
347.8473	0.173
348.0566	0.1736
348.2659	0.1665
348.4752	0.1719
348.6845	0.1694
348.8937	0.1702
349.103	0.1691
349.3122	0.1762
349.5214	0.1752
349.7306	0.1837
349.9398	0.1694
350.149	0.174
350.3582	0.1817
350.5674	0.1832
350.7765	0.1765
350.9856	0.1703
351.1948	0.1755
351.4039	0.1819
351.613	0.1746
351.822	0.1808
352.0311	0.1799
352.2402	0.1776
352.4492	0.1804
352.6582	0.1706
352.8672	0.1774
353.0762	0.1813
353.2852	0.1842
353.4942	0.181
353.7032	0.1778
353.9121	0.1856
354.1211	0.1918
354.33	0.1836
354.5389	0.1833
354.7478	0.1867
354.9567	0.1859
355.1655	0.1857
355.3744	0.1873
355.5833	0.1829
355.7921	0.1872
356.0009	0.1888
356.2097	0.1841
356.4185	0.1853
356.6273	0.1887
356.8361	0.1858
357.0448	0.1912
357.2536	0.1952
357.4623	0.1955
357.671	0.1975
357.8797	0.192
358.0884	0.186
358.2971	0.1933
358.5057	0.1928
358.7144	0.1927
358.923	0.1896
359.1316	0.2033
359.3402	0.1914
359.5488	0.1903
359.7574	0.2028
359.966	0.2012
360.1746	0.2016
360.3831	0.2047
360.5916	0.209
360.8002	0.2082
361.0087	0.1979
361.2172	0.2121
361.4256	0.2016
361.6341	0.21
361.8426	0.2009
362.051	0.2048
362.2594	0.2072
362.4678	0.2081
362.6762	0.21
362.8846	0.2078
363.093	0.2111
363.3014	0.2186
363.5097	0.2166
363.718	0.2217
363.9264	0.2197
364.1347	0.2153
364.343	0.2228
364.5513	0.2135
364.7595	0.2248
364.9678	0.2234
365.176	0.2232
365.3842	0.2237
365.5925	0.2174
365.8007	0.2198
366.0089	0.2227
366.217	0.2318
366.4252	0.2256
366.6333	0.2311
366.8415	0.2345
367.0496	0.2312
367.2577	0.2335
367.4658	0.2309
367.6739	0.2271
367.882	0.2355
368.09	0.2268
368.2981	0.2406
368.5061	0.2368
368.7141	0.2335
368.9221	0.2493
369.1301	0.2348
369.3381	0.2466
369.5461	0.2373
369.754	0.245
369.962	0.2411
370.1699	0.253
370.3778	0.2514
370.5857	0.2501
370.7936	0.248
371.0015	0.2346
371.2093	0.2495
371.4172	0.2393
371.625	0.246
371.8328	0.2412
372.0406	0.2516
372.2484	0.2516
372.4562	0.2492
372.664	0.2553
372.8717	0.2563
373.0795	0.2597
373.2872	0.2554
373.4949	0.2549
373.7026	0.2568
373.9103	0.2573
374.118	0.2555
374.3256	0.2694
374.5333	0.2544
374.7409	0.2669
374.9485	0.2611
375.1561	0.2648
375.3637	0.2545
375.5713	0.2709
375.7789	0.2599
375.9864	0.2536
376.194	0.2682
376.4015	0.2655
376.609	0.2631
376.8165	0.2659
377.024	0.2678
377.2315	0.2702
377.4389	0.2697
377.6464	0.2794
377.8538	0.2716
378.0612	0.2751
378.2686	0.2734
378.476	0.2722
378.6834	0.274
378.8908	0.2793
379.0981	0.2809
379.3055	0.2761
379.5128	0.2747
379.7201	0.2821
379.9274	0.2789
380.1347	0.2833
380.342	0.281
380.5492	0.2773
380.7565	0.2775
380.9637	0.2889
381.1709	0.2775
381.3781	0.2907
381.5853	0.2838
381.7925	0.2918
381.9997	0.2869
382.2068	0.2832
382.4139	0.2852
382.6211	0.2905
382.8282	0.2901
383.0353	0.2892
383.2424	0.2911
383.4494	0.2914
383.6565	0.299
383.8635	0.2805
384.0706	0.2896
384.2776	0.2952
384.4846	0.2931
384.6916	0.2839
384.8986	0.2916
385.1055	0.3007
385.3125	0.2954
385.5194	0.3015
385.7263	0.2846
385.9333	0.2971
386.1402	0.2976
386.347	0.2945
386.5539	0.2905
386.7608	0.292
386.9676	0.2887
387.1744	0.2975
387.3813	0.2926
387.5881	0.2855
387.7948	0.2929
388.0016	0.3061
388.2084	0.2966
388.4151	0.2856
388.6219	0.288
388.8286	0.2902
389.0353	0.2919
389.242	0.2842
389.4487	0.2895
389.6553	0.2763
389.862	0.2877
390.0686	0.2936
390.2753	0.2822
390.4819	0.2909
390.6885	0.2896
390.8951	0.2823
391.1016	0.2764
391.3082	0.289
391.5147	0.2758
391.7213	0.28
391.9278	0.2795
392.1343	0.2796
392.3408	0.2767
392.5473	0.2838
392.7537	0.2818
392.9602	0.2673
393.1666	0.2786
393.373	0.2646
393.5794	0.2677
393.7858	0.274
393.9922	0.2662
394.1986	0.2675
394.4049	0.2668
394.6113	0.2664
394.8176	0.2704
395.0239	0.2497
395.2302	0.2651
395.4365	0.2601
395.6428	0.262
395.8491	0.2613
396.0553	0.2622
396.2615	0.2568
396.4678	0.2532
396.674	0.2452
396.8802	0.2607
397.0863	0.2504
397.2925	0.2536
397.4987	0.2505
397.7048	0.2506
397.9109	0.2547
398.117	0.2505
398.3231	0.249
398.5292	0.2488
398.7353	0.2435
398.9413	0.2402
399.1474	0.2556
399.3534	0.2483
399.5594	0.2556
399.7654	0.2371
399.9714	0.2488
400.1774	0.2453
400.3833	0.2517
400.5893	0.2544
400.7952	0.2564
401.0011	0.2464
401.207	0.2495
401.4129	0.2531
401.6188	0.2502
401.8247	0.2597
402.0305	0.2394
402.2364	0.2538
402.4422	0.2579
402.648	0.2486
402.8538	0.2412
403.0596	0.2534
403.2654	0.2462
403.4711	0.2396
403.6768	0.2425
403.8826	0.2435
404.0883	0.2483
404.294	0.2491
404.4997	0.2583
404.7054	0.2518
404.911	0.2455
405.1167	0.2477
405.3223	0.2385
405.5279	0.2448
405.7335	0.2403
405.9391	0.2377
406.1447	0.2525
406.3502	0.2334
406.5558	0.2428
406.7613	0.2487
406.9668	0.2397
407.1724	0.2416
407.3778	0.2431
407.5833	0.2428
407.7888	0.2473
407.9942	0.2527
408.1997	0.2479
408.4051	0.2442
408.6105	0.2503
408.8159	0.2492
409.0213	0.2509
409.2267	0.2508
409.432	0.2421
409.6374	0.2543
409.8427	0.254
410.048	0.2489
410.2533	0.2418
410.4586	0.2434
410.6639	0.2518
410.8691	0.2387
411.0744	0.2498
411.2796	0.2477
411.4848	0.2428
411.69	0.2345
411.8952	0.2444
412.1004	0.2528
412.3056	0.2412
412.5107	0.2452
412.7158	0.2527
412.921	0.2451
413.1261	0.2367
413.3312	0.2488
413.5362	0.2592
413.7413	0.2471
413.9464	0.2366
414.1514	0.2477
414.3564	0.2423
414.5614	0.2413
414.7664	0.234
414.9714	0.2388
415.1764	0.2342
415.3813	0.2396
415.5863	0.2477
415.7912	0.2415
415.9961	0.2426
416.201	0.2473
416.4059	0.2349
416.6108	0.2351
416.8156	0.2309
417.0205	0.2454
417.2253	0.229
417.4301	0.2383
417.6349	0.2332
417.8397	0.2407
418.0445	0.2374
418.2492	0.2437
418.454	0.227
418.6587	0.2403
418.8634	0.2382
419.0681	0.2432
419.2728	0.2336
419.4775	0.2338
419.6822	0.2254
419.8868	0.2254
420.0915	0.233
420.2961	0.2326
420.5007	0.2328
420.7053	0.2391
420.9099	0.2335
421.1144	0.2353
421.319	0.2234
421.5235	0.2237
421.728	0.233
421.9325	0.2279
422.137	0.2184
422.3415	0.2244
422.546	0.2169
422.7504	0.2197
422.9549	0.2279
423.1593	0.2157
423.3637	0.2226
423.5681	0.2247
423.7725	0.2214
423.9769	0.2225
424.1812	0.2077
424.3856	0.2146
424.5899	0.2096
424.7942	0.2126
424.9985	0.2161
425.2028	0.2284
425.4071	0.2173
425.6113	0.2115
425.8156	0.2048
426.0198	0.2111
426.224	0.2146
426.4282	0.2016
426.6324	0.2041
426.8366	0.2048
427.0407	0.2062
427.2449	0.203
427.449	0.1993
427.6531	0.2098
427.8572	0.2021
428.0613	0.2022
428.2654	0.1971
428.4694	0.1861
428.6735	0.1905
428.8775	0.1959
429.0815	0.1899
429.2855	0.1931
429.4895	0.1876
429.6935	0.1957
429.8975	0.1851
430.1014	0.1937
430.3053	0.1852
430.5093	0.1787
430.7132	0.1869
430.9171	0.189
431.1209	0.1814
431.3248	0.1693
431.5286	0.1661
431.7325	0.1783
431.9363	0.1715
432.1401	0.1772
432.3439	0.1624
432.5477	0.157
432.7514	0.1621
432.9552	0.1636
433.1589	0.1528
433.3627	0.1651
433.5664	0.1505
433.7701	0.1591
433.9737	0.171
434.1774	0.16
434.3811	0.1405
434.5847	0.1475
434.7883	0.1512
434.9919	0.1414
435.1955	0.1474
435.3991	0.1461
435.6027	0.1362
435.8062	0.158
436.0098	0.1356
436.2133	0.1365
436.4168	0.1416
436.6203	0.1318
436.8238	0.1315
437.0272	0.1387
437.2307	0.1288
437.4341	0.1346
437.6375	0.1298
437.841	0.1171
438.0443	0.1241
438.2477	0.1188
438.4511	0.1149
438.6545	0.1234
438.8578	0.1269
439.0611	0.1168
439.2644	0.1231
439.4677	0.1147
439.671	0.1115
439.8743	0.1151
440.0775	0.0997
440.2808	0.1061
440.484	0.111
440.6872	0.1024
440.8904	0.0882
441.0936	0.1038
441.2967	0.083
441.4999	0.0877
441.703	0.0859
441.9062	0.0996
442.1093	0.1048
442.3124	0.0907
442.5155	0.092
442.7185	0.0863
442.9216	0.0835
443.1246	0.0864
443.3276	0.0865
443.5307	0.0797
443.7337	0.0796
443.9366	0.0833
444.1396	0.0749
444.3426	0.0779
444.5455	0.0736
444.7484	0.0726
444.9513	0.0683
445.1542	0.0795
445.3571	0.0781
445.56	0.0667
445.7628	0.0747
445.9657	0.0786
446.1685	0.0642
446.3713	0.0668
446.5741	0.0687
446.7769	0.0689
446.9797	0.0595
447.1824	0.0702
447.3852	0.0431
447.5879	0.0616
447.7906	0.048
447.9933	0.0653
448.196	0.0625
448.3986	0.0574
448.6013	0.0459
448.8039	0.0544
449.0066	0.0602
449.2092	0.0586
449.4118	0.0524
449.6143	0.0492
449.8169	0.0524
450.0195	0.0509
450.222	0.0572
450.4245	0.0557
450.627	0.0475
450.8295	0.0437
451.032	0.0453
451.2345	0.0381
451.4369	0.0401
451.6394	0.0441
451.8418	0.0449
452.0442	0.0447
452.2466	0.031
452.449	0.0421
452.6513	0.0282
452.8537	0.0273
453.056	0.0396
453.2583	0.0317
453.4607	0.0331
453.663	0.0411
453.8652	0.0221
454.0675	0.0311
454.2697	0.033
454.472	0.0339
454.6742	0.0403
454.8764	0.0361
455.0786	0.0281
455.2808	0.0263
455.4829	0.0316
455.6851	0.0182
455.8872	0.0232
456.0893	0.0246
456.2915	0.0267
456.4935	0.0312
456.6956	0.03
456.8977	0.031
457.0997	0.0281
457.3018	0.0134
457.5038	0.0234
457.7058	0.0237
457.9078	0.0246
458.1098	0.0296
458.3117	0.026
458.5137	0.0147
458.7156	0.025
458.9175	0.0253
459.1194	0.0165
459.3213	0.0186
459.5232	0.0297
459.725	0.019
459.9269	0.0239
460.1287	0.0166
460.3305	0.0221
460.5323	0.0187
460.7341	0.0187
460.9359	0.0083
461.1376	0.0141
461.3394	0.0181
461.5411	0.0202
461.7428	0.0291
461.9445	0.0169
462.1462	0.0182
462.3479	0.0151
462.5495	0.0219
462.7512	0.0316
462.9528	0.0101
463.1544	0.0111
463.356	0.0065
463.5576	0.0136
463.7592	0.0115
463.9607	0.013
464.1623	0.0152
464.3638	0.0145
464.5653	0.0158
464.7668	0.0184
464.9683	0.0165
465.1697	0.0093
465.3712	0.0048
465.5726	0.0107
465.7741	0.0156
465.9755	0.0124
466.1769	0.0059
466.3782	0.0137
466.5796	0.0219
466.7809	0.0141
466.9823	0.014
467.1836	0.0102
467.3849	0.0091
467.5862	0.0077
467.7875	0.0108
467.9887	0.0113
468.19	0.0058
468.3912	0.018
468.5924	0.0118
468.7936	0.0159
468.9948	0.0014
469.196	0.0066
469.3972	0.0002
469.5983	0.0074
469.7994	0.0088
470.0006	0.019
470.2017	0.01
470.4027	0.0173
470.6038	0.005
470.8049	0.0092
471.0059	0.0179
471.2069	0.0062
471.408	0.0176
471.6089	0.0122
471.8099	0.0171
472.0109	0.0103
472.2119	0.0128
472.4128	0.008
472.6137	0.01
472.8146	0.0018
473.0155	0.0165
473.2164	0.0102
473.4173	0.0008
473.6181	0.0006
473.819	0.0071
474.0198	0.0028
474.2206	-0.008
474.4214	0.0085
474.6222	-0.0022
474.8229	0.0064
475.0237	0.013
475.2244	0.0082
475.4251	-0.0004
475.6258	0.0085
475.8265	0.0179
476.0272	0.0009
476.2278	0.0069
476.4285	0.011
476.6291	0.0113
476.8297	0.0098
477.0303	-0.0017
477.2309	0.0067
477.4315	0.003
477.632	0.005
477.8326	0.013
478.0331	0.0125
478.2336	0.0071
478.4341	0.0057
478.6346	0.0053
478.8351	0.0049
479.0355	0.013
479.236	0.0179
479.4364	0.0069
479.6368	0.0064
479.8372	0.0069
480.0376	0.0081
480.2379	0.0109
480.4383	0.0155
480.6386	-0.0027
480.8389	0.0034
481.0392	0.0055
481.2395	0.0144
481.4398	0.0062
481.6401	0.0049
481.8403	-0.0058
482.0405	0.0028
482.2408	0.0012
482.441	0.0142
482.6411	0.0065
482.8413	0.0019
483.0415	0.0161
483.2416	-0.0013
483.4417	0.0044
483.6419	0.0016
483.8419	0.0017
484.042	0.0016
484.2421	0.0033
484.4422	0.009
484.6422	0.0093
484.8422	0.0102
485.0422	0.0039
485.2422	0.0016
485.4422	0.0073
485.6422	0.0035
485.8421	0.0025
486.042	0.0125
486.242	0.0014
486.4419	0.0043
486.6417	0.004
486.8416	0.003
487.0415	0.0021
487.2413	-0.0014
487.4411	0.004
487.641	0.0047
487.8408	0.0131
488.0405	0.0085
488.2403	-0.0006
488.4401	0.012
488.6398	0.015
488.8395	0.0062
489.0392	0.0131
489.2389	0.0096
489.4386	-0.0019
489.6383	0.0107
489.8379	-0.0008
490.0376	0.0087
490.2372	0.0054
490.4368	-0.0001
490.6364	0.0019
490.836	0.0056
491.0355	-0.0065
491.2351	0.0038
491.4346	0.0054
491.6341	-0.0031
491.8336	0.0065
492.0331	0.004
492.2326	0.0057
492.432	0.0065
492.6315	0.0123
492.8309	0.0062
493.0303	0.0052
493.2297	0.006
493.4291	-0.0029
493.6284	0.0099
493.8278	0.0062
494.0271	0.0011
494.2264	0.0047
494.4257	0.01
494.625	0.0028
494.8243	0.0004
495.0236	0.012
495.2228	0.0097
495.422	0.0113
495.6213	0.0072
495.8205	0.0111
496.0196	0.0074
496.2188	0.0023
496.418	0.0047
496.6171	0.0028
496.8162	0.0019
497.0153	0.0097
497.2144	0.0097
497.4135	0.0042
497.6126	0.003
497.8116	0.0125
498.0107	0.0126
498.2097	0.0096
498.4087	0.0056
498.6077	-0.0023
498.8067	0.0055
499.0056	-0.0001
499.2046	0.0088
499.4035	0.0015
499.6024	0.0031
499.8013	0.0067
500.0002	0.0053
500.199	0.0139
500.3979	0.0008
500.5967	0.0013
500.7956	0.0126
500.9944	0.0065
501.1932	0.0126
501.3919	0.0086
501.5907	0.0073
501.7895	0.0014
501.9882	0.0067
502.1869	0.0146
502.3856	0.0124
502.5843	0.0138
502.783	0.0071
502.9816	0.012
503.1803	0.007
503.3789	0.005
503.5775	0.0067
503.7761	0.0031
503.9747	0.0096
504.1732	0.0031
504.3718	0.0139
504.5703	0.0068
504.7689	-0.009
504.9674	0.0035
505.1658	0.0029
505.3643	0.0056
505.5628	0.011
505.7612	0.0149
505.9597	0.0022
506.1581	-0.002
506.3565	0.0041
506.5549	0.0057
506.7532	0.0005
506.9516	0.0071
507.1499	0.005
507.3482	0.0054
507.5465	0.0143
507.7448	0.0066
507.9431	0.0083
508.1414	0.0003
508.3396	0.0051
508.5379	-0.0011
508.7361	0.0099
508.9343	-0.0004
509.1325	0.0176
509.3306	0.0074
509.5288	-0.0009
509.7269	0.0047
509.9251	0.0087
510.1232	0.0063
510.3213	0.0045
510.5193	0.0089
510.7174	-0.0041
510.9154	0.0095
511.1135	-0.0001
511.3115	-0.001
511.5095	0.0071
511.7075	0.011
511.9055	0.005
512.1034	0.0012
512.3014	0.0045
512.4993	0.0145
512.6972	0.0081
512.8951	0.0028
513.093	0.0071
513.2908	0.011
513.4887	0.0087
513.6865	0.0054
513.8844	0.0102
514.0822	0.0099
514.2799	0.0056
514.4777	0.0004
514.6755	-0.0013
514.8732	0.0161
515.0709	0.0094
515.2687	0.0059
515.4664	0.0098
515.664	0.0253
515.8617	0.0037
516.0594	0.0007
516.257	0.0055
516.4546	0.0203
516.6522	0.0053
516.8498	0.0117
517.0474	0.0029
517.2449	0.0021
517.4425	0.0087
517.64	0.0042
517.8375	0.0103
518.035	0.0034
518.2325	-0.0062
518.43	0.0023
518.6274	0.0127
518.8249	0.0041
519.0223	0.0138
519.2197	0.005
519.4171	0.007
519.6145	0.0126
519.8118	-0.0095
520.0092	-0.0018
520.2065	0.0185
520.4038	0.0099
520.6011	0.0016
520.7984	0.0118
520.9956	0.0097
521.1929	0.0172
521.3901	0.0061
521.5874	0.0157
521.7846	0.0006
521.9818	-0.006
522.1789	0.0025
522.3761	0.0249
522.5732	0.0036
522.7704	-0.0008
522.9675	-0.0006
523.1646	-0.0048
523.3617	0.0124
523.5587	0.0118
523.7558	0.0082
523.9528	0.0161
524.1498	0.0069
524.3468	0.0102
524.5438	0.0038
524.7408	0.0022
524.9378	0.0114
525.1347	0.0043
525.3316	0.0028
525.5285	0.0039
525.7254	0.012
525.9223	0.0114
526.1192	0.0103
526.316	0.0071
526.5129	0.0066
526.7097	0.0097
526.9065	0.0187
527.1033	0.0068
527.3	-0.001
527.4968	0.0126
527.6935	0.0028
527.8903	0.0101
528.087	-0.0051
528.2837	0.0111
528.4804	0.0002
528.677	0.0091
528.8737	0.0042
529.0703	-0.0011
529.2669	0.0179
529.4635	-0.003
529.6601	-0.0008
529.8567	0.0013
530.0532	0.0046
530.2498	0.0118
530.4463	-0.0022
530.6428	0.0126
530.8393	0.0122
531.0358	0.0111
531.2322	0.0032
531.4287	0.0009
531.6251	-0.0043
531.8215	-0.0004
532.0179	0.0037
532.2143	0.0146
532.4107	0.0068
532.607	-0.0012
532.8034	0.0041
532.9997	0.0065
533.196	0.0093
533.3923	0.0022
533.5886	0.0108
533.7848	0.0056
533.9811	0.0068
534.1773	0.0088
534.3735	0.0094
534.5697	0.0049
534.7659	0.0066
534.9621	0.0108
535.1582	0.0154
535.3544	0.0105
535.5505	0.0073
535.7466	0.0022
535.9427	0.0084
536.1387	0.0088
536.3348	0.0059
536.5308	-0.0021
536.7269	0.0016
536.9229	0.0072
537.1189	0.0161
537.3148	0.0038
537.5108	0.012
537.7068	0.0124
537.9027	-0.0012
538.0986	0.011
538.2945	0.0002
538.4904	0.0022
538.6863	-0.0019
538.8821	0.0095
539.078	0.0045
539.2738	0.0025
539.4696	-0.0012
539.6654	0.0012
539.8611	0.0021
540.0569	0.0115
540.2526	0.0141
540.4484	0.0013
540.6441	0.0002
540.8398	0.0103
541.0355	0.0052
541.2311	0.001
541.4268	0.0114
541.6224	0.0138
541.818	0.0096
542.0136	0.0074
542.2092	0.0175
542.4048	0.0119
542.6003	-0.0023
542.7959	0.0109
542.9914	0.0086
543.1869	0.011
543.3824	0.0075
543.5779	0.0048
543.7734	0.0103
543.9688	0.0086
544.1642	0.0016
544.3596	0.0098
544.555	0.0048
544.7504	0.0032
544.9458	0.0074
545.1411	-0.0076
545.3365	0.01
545.5318	0.0084
545.7271	0.0092
545.9224	-0.0011
546.1177	0.0094
546.3129	0.0113
546.5081	0.0026
546.7034	0.006
546.8986	0.0056
547.0938	0.0131
547.289	0.009
547.4841	0.0053
547.6793	0.0112
547.8744	0.0135
548.0695	0.0038
548.2646	0.0076
548.4597	0.0033
548.6548	0.008
548.8498	0.0123
549.0448	0.0061
549.2399	0.0134
549.4349	0.0074
549.6298	0.0125
549.8248	-0.0004
550.0198	0.0095
550.2147	0.0117
550.4096	-0.0069
550.6045	0.0025
550.7994	0.012
550.9943	0.0119
551.1892	-0.0074
551.384	0.0158
551.5788	0.0105
551.7737	0.0137
551.9685	0.011
552.1632	0.0038
552.358	0.0057
552.5528	0.0052
552.7475	0.0078
552.9422	0.0067
553.1369	0.0084
553.3316	0.0043
553.5263	0.0088
553.7209	0.0099
553.9156	0.0086
554.1102	0.0044
554.3048	0.0079
554.4994	0.003
554.694	0.0012
554.8885	0.0063
555.0831	0.0069
555.2776	0.0041
555.4721	0.0052
555.6666	0.0098
555.8611	0.0092
556.0555	0.0091
556.25	0.0102
556.4444	-0.0043
556.6388	-0.0004
556.8332	0.0028
557.0276	-0.0001
557.222	0.002
557.4163	0.009
557.6107	0.0062
557.805	-0.0083
557.9993	0.0007
558.1936	0.0044
558.3879	0.0058
558.5821	0.0032
558.7764	0.0062
558.9706	0.0069
559.1648	0.0023
559.359	0.0011
559.5532	-0.0075
559.7473	0.0032
559.9415	0.0119
560.1356	0.0148
560.3297	-0.012
560.5238	0.0094
560.7179	0.002
560.9119	0.0051
561.106	0.0054
561.3	0.0028
561.494	-0.0055
561.688	-0.0028
561.882	-0.0008
562.076	0.0107
562.2699	0.0177
562.4639	0.0117
562.6578	0.0082
562.8517	0.0072
563.0456	0.0056
563.2395	0.0002
563.4333	0.0051
563.6272	0.0045
563.821	0.002
564.0148	0.0052
564.2086	0.0059
564.4024	0.0054
564.5961	0.0056
564.7899	0.0138
564.9836	0.002
565.1773	0.0115
565.371	0.0114
565.5647	0.0047
565.7584	0.0113
565.952	0.0102
566.1456	0.0013
566.3393	0.0041
566.5329	0.0024
566.7264	0.0148
566.92	0.0099
567.1136	-0.0023
567.3071	-0.0018
567.5006	0.0098
567.6941	0.0029
567.8876	0.0009
568.0811	0.0211
568.2745	0.0032
568.468	0.0067
568.6614	0.0031
568.8548	0.0141
569.0482	0.0047
569.2416	0.0055
569.4349	0.0048
569.6283	0.0058
569.8216	0.0079
570.0149	0.002
570.2082	0.0081
570.4015	0.0066
570.5947	0.0083
570.788	0.008
570.9812	0.0054
571.1744	0.0077
571.3676	0.0062
571.5608	0.0038
571.754	0.0108
571.9471	0.0074
572.1402	0.0011
572.3333	0.004
572.5264	0.0065
572.7195	0.0019
572.9126	0.0049
573.1057	0.0088
573.2987	0.0039
573.4917	0.0047
573.6847	0.0068
573.8777	0.0081
574.0707	0.0052
574.2636	0.0043
574.4566	0.0036
574.6495	0.0032
574.8424	0.0052
575.0353	0.0068
575.2281	0.0055
575.421	0.0043
575.6138	0.0015
575.8067	0.0051
575.9995	0.0024
576.1923	0.0085
576.385	0.007
576.5778	0.0104
576.7706	0.0024
576.9633	0.0026
577.156	-0.0001
577.3487	0.0045
577.5414	0.0039
577.734	0.0038
577.9267	0.0085
578.1193	0.0075
578.3119	0.0008
578.5045	0.004
578.6971	0.0054
578.8897	0.0018
579.0822	0.0068
579.2747	-0.0014
579.4673	0.0032
579.6598	0.0061
579.8522	0.0049
580.0447	0.0102
580.2372	0.0067
580.4296	0.0069
580.622	0.0014
580.8144	0.0057
581.0068	0.0036
581.1992	0.005
581.3915	0.0001
581.5839	0.0057
581.7762	0.0018
581.9685	0.005
582.1608	0.0019
582.353	0.0021
582.5453	0.0051
582.7375	0.0066
582.9298	0.0022
583.122	0.0024
583.3142	0.0062
583.5063	0.0045
583.6985	0.0021
583.8906	0.0019
584.0827	0.0072
584.2749	0.0024
584.4669	0.0051
584.659	0.0068
584.8511	0.0101
585.0431	0.0087
585.2352	0.0036
585.4272	0.0088
585.6192	0.0065
585.8111	0.0031
586.0031	0.0015
586.195	0.0032
586.387	0.005
586.5789	0.0075
586.7708	0.0023
586.9627	0.0036
587.1545	0.0088
587.3464	0.0089
587.5382	0.0003
587.73	0.0126
587.9218	0.0061
588.1136	-0.0007
588.3053	0.0028
588.4971	0.0022
588.6888	0.0023
588.8805	0.0041
589.0722	0.0102
589.2639	0.0033
589.4556	0.0066
589.6472	0.0114
589.8389	0.0086
590.0305	0.0022
590.2221	0.0059
590.4137	0.0016
590.6052	0.0039
590.7968	0.0049
590.9883	0.0007
591.1798	0.0046
591.3713	0.005
591.5628	0.0035
591.7543	0.0073
591.9458	0.0031
592.1372	0.0055
592.3286	0.0037
592.52	0.0021
592.7114	0.0007
592.9028	0.01
593.0941	0.0029
593.2855	0.0036
593.4768	0.0123
593.6681	0.0081
593.8594	0.0046
594.0506	0.0045
594.2419	0.0051
594.4331	0.0004
594.6244	0.0026
594.8156	0.0068
595.0067	0.0023
595.1979	0.0004
595.3891	0.002
595.5802	0.0058
595.7713	0.0079
595.9624	0.0117
596.1535	0.0029
596.3446	0.0049
596.5357	0.0068
596.7267	0.0048
596.9177	0.005
597.1087	-0.0018
597.2997	0.0039
597.4907	0.0021
597.6817	0.0143
597.8726	0.0101
598.0635	0.001
598.2544	0.0066
598.4453	0.0029
598.6362	0.0009
598.827	0.0061
599.0179	0.0083
599.2087	0.0115
599.3995	0.0095
599.5903	0.0003
599.7811	0.0065
599.9718	0.0029
600.1626	0.0045
600.3533	0.0036
600.544	0.0084
600.7347	0.0039
600.9254	0.0114
601.116	0.0087
601.3067	0.0027
601.4973	0.0134
601.6879	0.0068
601.8785	0.0072
602.0691	0.0036
602.2596	0.0067
602.4502	0.0074
602.6407	0.0054
602.8312	0.0108
603.0217	0.0091
603.2122	0.0024
603.4027	0.0113
603.5931	0.003
603.7835	0.0044
603.9739	0.0007
604.1643	0.0096
604.3547	0.0159
604.5451	0.0067
604.7354	-0.0009
604.9257	0.0011
605.116	0.0004
605.3063	0.0072
605.4966	0.0007
605.6869	0.0048
605.8771	0.0041
606.0673	-0.0017
606.2575	0.0024
606.4477	0.0162
606.6379	0.0028
606.8281	-0.0014
607.0182	0.0021
607.2083	0.0071
607.3985	-0.001
607.5885	0.0011
607.7786	0.0067
607.9687	0.0047
608.1587	0.0085
608.3488	0.0084
608.5388	-0.0024
608.7288	-0.0017
608.9187	0.0037
609.1087	0.0018
609.2986	0.0042
609.4886	0.0033
609.6785	0.0073
609.8684	0.0012
610.0582	0.0002
610.2481	-0.0003
610.4379	0.006
610.6278	0.0022
610.8176	0.0074
611.0074	0.0044
611.1971	0.0038
611.3869	0.008
611.5766	-0.0039
611.7664	0.0101
611.9561	0.0092
612.1458	0.0063
612.3354	0.0043
612.5251	0.0044
612.7147	0.012
612.9044	0.0017
613.094	0.0118
613.2836	0.0059
613.4731	0.0023
613.6627	0.0069
613.8522	0.0087
614.0417	0.0088
614.2313	0.0015
614.4207	0.0133
614.6102	0.0087
614.7997	0.0115
614.9891	0.0066
615.1785	-0.0038
615.3679	0.0036
615.5573	0.0083
615.7467	-0.0034
615.9361	-0.0047
616.1254	0.0081
616.3147	0.0054
616.504	0.0055
616.6933	0.0004
616.8826	-0.0013
617.0718	0.0106
617.2611	0.0071
617.4503	-0.0052
617.6395	0.0056
617.8287	0.0036
618.0179	0.0044
618.207	0.014
618.3961	-0.0026
618.5853	0.007
618.7744	0.0075
618.9634	0.0097
619.1525	0.0019
619.3416	0.0035
619.5306	0.0124
619.7196	0.0064
619.9086	0.0014
620.0976	-0.0012
620.2866	0.0068
620.4755	0.009
620.6645	0.0126
620.8534	0.0055
621.0423	0.0042
621.2312	-0.0039
621.42	0.008
621.6089	0.0074
621.7977	0.0096
621.9865	0.007
622.1753	-0.0015
622.3641	-0.0055
622.5529	-0.0068
622.7416	0.0027
622.9303	-0.0057
623.1191	0.0038
623.3078	0.0043
623.4964	0.0092
623.6851	0.0024
623.8737	0.0047
624.0624	-0.005
624.251	0.0036
624.4396	0.0043
624.6282	0.0102
624.8167	0.0045
625.0053	0.0187
625.1938	0.0022
625.3823	0.0031
625.5708	0.002
625.7593	0.0024
625.9477	0.0073
626.1362	-0.0003
626.3246	0.0124
626.513	0.0017
626.7014	0.0179
626.8898	0.0085
627.0781	0.0092
627.2665	0.0152
627.4548	-0.0076
627.6431	0
627.8314	0.0102
628.0197	0.005
628.2079	0.003
628.3962	0.0106
628.5844	-0.0005
628.7726	0.0068
628.9608	0.0007
629.1489	0.0081
629.3371	-0.0062
629.5252	0.005
629.7134	-0.0105
629.9015	0.0223
630.0895	0.0011
630.2776	0.008
630.4657	0.0167
630.6537	0.0028
630.8417	-0.0065
631.0297	0.007
631.2177	0.0026
631.4057	0.0013
631.5936	0.011
631.7815	0.0044
631.9695	0.0162
632.1574	0.0159
632.3452	0.0106
632.5331	0.0008
632.7209	0.0078
632.9088	0.0059
633.0966	0.0224
633.2844	-0.0002
633.4722	0.006
633.6599	0.0108
633.8477	0.0054
634.0354	0.0189
634.2231	-0.0046
634.4108	0.003
634.5985	0.0221
634.7861	0.0086
634.9738	0.0048
635.1614	-0.0045
635.349	-0.0036
635.5366	0.0118
635.7242	0.0015
635.9117	0.003
636.0993	0.0008
636.2868	0.0033
636.4743	0.0117
636.6618	-0.0057
636.8492	0.0218
637.0367	-0.0002
637.2241	-0.0021
637.4115	0.0311
637.5989	-0.0002
637.7863	0.0352
637.9737	0.0087
638.161	0.0045
638.3484	-0.0035
638.5357	0.0048
638.723	0.0134
638.9103	-0.0035
639.0975	0.0105
639.2848	0.0164
639.472	0.0085
639.6592	-0.0012
639.8464	0.0088
640.0336	0.0106
640.2208	-0.0152
640.4079	0.001
640.595	-0.019
640.7821	0.031
640.9692	-0.0047
641.1563	0.0071
641.3434	0.0101
641.5304	0.0063
641.7174	0.0116
641.9044	0.0024
642.0914	0.0201
642.2784	0.0017
642.4653	0.0014
642.6523	0.0165
642.8392	0.0024
643.0261	0.014
643.213	0.0051
643.3999	0.0281
643.5867	0.012
643.7735	-0.0086
643.9604	0.0046
644.1472	0.0037
644.3339	0.0114
644.5207	0.0021
644.7075	-0.001
644.8942	-0.007
645.0809	0.0066
645.2676	-0.0005
645.4543	-0.0119
645.6409	0.0273
645.8276	0.0096
646.0142	-0.0096
646.2008	0.0136
646.3874	-0.0123
646.574	-0.0043
646.7605	-0
646.9471	0.0017
647.1336	-0.0251
647.3201	-0.0037
647.5066	0.0013
647.6931	-0.0093
647.8795	0.0177
648.0659	0.002
648.2524	0.0096
648.4388	0.0039
648.6252	0.0199
648.8115	0.0047
648.9979	-0.0039
649.1842	0.0114
649.3705	0.004
649.5568	-0.0112
649.7431	-0.0039
649.9294	0.0048
650.1156	-0.0024
650.3018	0.0095
650.488	-0.0044
650.6742	0.0167
650.8604	0.0143
651.0466	-0.0051
651.2327	0.0005
651.4188	-0.006
651.6049	0.0226
651.791	0.0035
651.9771	-0.0037
652.1632	0.0066
652.3492	-0.0064
652.5352	0.0046
652.7212	-0.0035
652.9072	-0.0118
653.0932	0.0012
653.2791	0.0098
653.465	-0.0176
653.651	0.0085
653.8369	0.0175
654.0227	0.0011
654.2086	0.0135
654.3944	0.0108
654.5803	0.0089
654.7661	-0.0042
654.9519	0.0005
655.1377	0.0001
655.3234	0.0001
655.5092	0.0001
655.6949	0.0001
655.8806	0.0001
656.0663	0.0001
656.2519	0.0001
656.4376	0.0001
656.6232	0.0001
656.8088	0.0001
656.9945	0.0001
657.18	0.0001
657.3656	0.0001
657.5511	0.0001
657.7367	0.0001
657.9222	0.0001
658.1077	0.0001
658.2932	0.0001
658.4786	0.0001
658.6641	0.0001
658.8495	0.0001
659.0349	0.0001
659.2203	0.0001
659.4057	0.0001
659.591	0.1465
659.7764	0.0254
659.9617	0.0165
660.147	0.0098
660.3323	0.0143
660.5176	-0.0045
660.7028	-0.0002
660.888	0.0124
661.0733	0.0163
661.2585	-0.0049
661.4436	0.0116
661.6288	0.033
661.8139	-0.0043
661.9991	-0.0013
662.1842	-0.0089
662.3693	-0.005
662.5544	0.0145
662.7394	0.019
662.9245	-0.0098
663.1095	-0.0065
663.2945	-0.0106
663.4795	-0.0073
663.6644	-0.0081
663.8494	0.0094
664.0343	0.022
664.2193	0.0071
664.4042	-0.0046
664.589	0.0042
664.7739	0.0124
664.9587	-0.0236
665.1436	-0.007
665.3284	-0.0008
665.5132	-0.0008
665.698	0.008
665.8827	0.0151
666.0675	0.0025
666.2522	0.0078
666.4369	0.001
666.6216	0.002
666.8063	0.0134
666.9909	0
667.1756	-0.0059
667.3602	0.0016
667.5448	0.0149
667.7294	0.0097
667.9139	-0.0007
668.0985	0.0169
668.283	-0.0094
668.4675	0.0154
668.652	0.0068
668.8365	-0.0115
669.0209	0.0144
669.2054	0.0058
669.3898	-0.0016
669.5742	0.0284
669.7586	0.006
669.943	0.0098
670.1273	0.0317
670.3117	0.0212
670.496	-0.0026
670.6803	0.0186
670.8646	-0.0044
671.0488	0.0291
671.2331	-0.0103
671.4173	0.0023
671.6015	0.0078
671.7857	0.0067
671.9699	0.0104
672.1541	-0.016
672.3382	-0.0017
672.5223	-0.0045
672.7064	-0.0048
672.8905	-0.0042
673.0746	0.017
673.2587	0.0123
673.4427	-0.0011
673.6267	0.0057
673.8107	0.0164
673.9947	0.0196
674.1787	0.0104
674.3626	-0.0111
674.5465	0.0129
674.7304	-0.0087
674.9143	-0.0089
675.0982	-0.007
675.2821	-0.0052
675.4659	0.0189
675.6497	-0.02
675.8335	-0.0036
676.0173	-0.0177
676.2011	0.0112
676.3849	0.0122
676.5686	0.0229
676.7523	-0.002
676.936	0.016
677.1197	0.0005
677.3034	0.0387
677.487	0.0068
677.6706	0.0092
677.8542	0.007
678.0378	0.0021
678.2214	-0.0016
678.405	-0.0023
678.5885	0.0065
678.772	0.0215
678.9555	0.0188
679.139	0.018
679.3225	0.0051
679.5059	0.0124
679.6894	0.0006
679.8728	0.0037
680.0562	0.0123
680.2395	-0.0012
680.4229	-0.0064
680.6062	0.0047
680.7896	-0.0085
680.9729	0.0187
681.1562	0.012
681.3394	0.0043
681.5227	0.0099
681.7059	0.0088
681.8891	0.0108
682.0723	-0.007
682.2555	0.0126
682.4387	0.0081
682.6218	-0.0013
682.805	0.0081
682.9881	0.0081
683.1712	0.0151
683.3542	0.0219
683.5373	0.0113
683.7203	0.0058
683.9034	-0.0007
684.0864	-0.0068
684.2694	0.002
684.4523	0.0226
684.6353	0.0002
684.8182	-0
685.0011	0.0161
685.184	0.0045
685.3669	0.0194
685.5498	-0.0091
685.7326	0.013
685.9154	-0.0034
686.0982	0.0117
686.281	-0.0045
686.4638	0.0217
686.6465	0.0058
686.8293	0.0034
687.012	-0.0051
687.1947	0.0124
687.3774	0.0026
687.56	-0.0232
687.7427	0
687.9253	-0.0095
688.1079	0.0086
688.2905	-0.0048
688.4731	0.0256
688.6556	-0.0011
688.8382	-0.0163
689.0207	0.0235
689.2032	0.0186
689.3857	0.0069
689.5681	0.0123
689.7506	0.0423
689.933	-0.0202
690.1154	0.0129
690.2978	0.0064
690.4802	0.0235
690.6626	0.0068
690.8449	0.0082
691.0272	-0.007
691.2095	-0.0159
691.3918	0.0044
691.5741	0.0107
691.7563	0.006
691.9386	0.0215
692.1208	0.0062
692.303	-0.009
692.4852	0.0115
692.6673	0.0111
692.8495	-0.0111
693.0316	0.0072
693.2137	0.0005
693.3958	0.0076
693.5778	0.0116
693.7599	-0.0126
693.9419	-0.016
694.1239	0.0185
694.3059	0.0237
694.4879	0.015
694.6699	-0.0131
694.8518	0.0153
695.0337	0.0027
695.2157	0.0281
695.3975	0.0042
695.5794	0.0004
695.7613	-0.0079
695.9431	0.0124
696.1249	0.0218
696.3067	-0.0047
696.4885	0.0118
696.6703	0.0004
696.852	-0.0131
697.0337	0.0122
697.2154	0.0072
697.3971	0.0022
697.5788	0.018
697.7605	-0.0139
697.9421	0.0097
698.1237	0.0207
698.3053	-0.0081
698.4869	0.0081
698.6685	-0.0112
698.85	0.0262
699.0315	0.0072
699.213	0.0146
699.3945	0.0099
699.576	0.0255
699.7575	0.0209
699.9389	-0.0108
700.1203	-0.0083
700.3017	0.0201
700.4831	0.0045
700.6645	0.0053
700.8458	-0.0186
701.0271	0.0354
701.2084	0.0196
701.3897	0.0277
701.571	-0.0152
701.7523	0.0329
701.9335	0.0122
702.1147	0.0332
702.2959	-0.0018
702.4771	0.0112
702.6583	0.0013
702.8394	-0.0271
703.0205	0.0164
703.2016	0.0025
703.3827	0.005
703.5638	-0.0307
703.7449	0.0198
703.9259	0.0188
704.1069	-0.0073
704.2879	0.0233
704.4689	0.0179
704.6499	0.005
704.8308	0.0161
705.0117	0.0119
705.1927	0.0269
705.3735	0.0196
705.5544	0.0259
705.7353	0.0115
705.9161	-0.0208
706.0969	0.0081
706.2777	0.0026
706.4585	0.0087
706.6393	0.0136
706.82	-0.0031
707.0007	-0.0205
707.1815	0.0099
707.3621	0.0204
707.5428	0.0107
707.7235	0.0229
707.9041	0.0179
708.0847	0.0143
708.2653	0.023
708.4459	0.0045
708.6265	0.0057
708.807	-0.0176
708.9875	0.01
709.168	-0.0056
709.3485	-0.0061
709.529	0.0104
709.7095	-0.0247
709.8899	0.0003
710.0703	0.0151
710.2507	0.0091
710.4311	-0.0376
710.6115	0.0232
710.7918	0.013
710.9721	-0.0014
711.1524	0.0067
711.3327	-0.0027
711.513	-0.002
711.6932	-0.0013
711.8735	0.0056
712.0537	-0.0257
712.2339	-0.0147
712.4141	0.0282
712.5942	-0.0112
712.7744	0.022
712.9545	-0.0044
713.1346	0.0222
713.3147	0.0017
713.4947	-0.0044
713.6748	-0.0047
713.8548	0.0088
714.0348	0.0144
714.2148	0.0087
714.3948	0.0069
714.5748	0.0157
714.7547	0.0402
714.9346	-0.0093
715.1145	-0.0134
715.2944	-0.0146
715.4743	0.0433
715.6541	-0.0205
715.834	0.0669
716.0138	-0.0028
716.1936	-0.0425
716.3733	-0.0162
716.5531	0.0087
716.7328	0.0563
716.9126	-0.0211
717.0923	-0.018
717.2719	-0.0023
717.4516	0.0024
717.6312	-0.025
717.8109	0.0368
717.9905	0.0182
718.1701	0.0253
718.3496	0.002
718.5292	-0.0191
718.7087	0.0313
718.8882	-0.0239
719.0677	0.0066
719.2472	0.0051
719.4267	-0.0131
719.6061	-0.0361
719.7856	0.0182
719.965	0.0176
720.1443	-0.0027
720.3237	0.0088
720.5031	-0.0038
720.6824	0.0178
720.8617	0
721.041	0.0328
721.2203	0.0102
721.3995	0.0248
721.5788	0.0004
721.758	0.0101
721.9372	-0.006
722.1164	-0.0085
722.2956	-0.013
722.4747	-0.0091
722.6538	-0.0087
722.8329	0.0348
723.012	0.0026
723.1911	0.0125
723.3702	0.0149
723.5492	-0.0093
723.7282	-0.0064
723.9072	0.024
724.0862	0.0243
724.2652	0.0126
724.4441	-0.0037
724.623	-0.0115
724.8019	0.0212
724.9808	0.0041
725.1597	0.0017
725.3385	0.0085
725.5174	-0.001
725.6962	0.0156
725.875	0.0245
726.0538	0.0216
726.2325	0.0225
726.4112	-0.024
726.59	-0.0076
726.7687	-0.0049
726.9474	0.0186
727.126	0.0262
727.3047	-0.0113
727.4833	-0.0089
727.6619	-0.0223
727.8405	0.0021
728.0191	0.0165
728.1976	0.0247
728.3762	0.0213
728.5547	-0.0022
728.7332	0.0237
728.9116	0.0226
729.0901	-0.0013
729.2686	0.0022
729.447	0.0086
729.6254	0.0212
729.8038	0.006
729.9821	0.0173
730.1605	0.0104
730.3388	0.009
730.5171	0.0097
730.6954	-0.0093
730.8737	0.0046
731.0519	0.0064
731.2302	0.0177
731.4084	0.0014
731.5866	0.0009
731.7648	0.01
731.9429	0.0091
732.1211	-0.0012
732.2992	-0.0057
732.4773	0.0089
732.6554	-0.0092
732.8335	0.0365
733.0115	0.0112
733.1896	-0.0016
733.3676	0.0128
733.5456	0.0005
733.7235	0.0031
733.9015	-0.0019
734.0794	-0.0021
734.2574	-0.0022
734.4353	0.0078
734.6131	-0.0064
734.791	0.0134
734.9689	-0.0211
735.1467	0.0047
735.3245	0.0158
735.5023	0.0054
735.68	0.0072
735.8578	0.0016
736.0355	0.0171
736.2132	-0.0097
736.3909	0.0212
736.5686	-0.0131
736.7463	-0.0178
736.9239	0.0178
737.1015	0.008
737.2791	0.0165
737.4567	0.0289
737.6343	0.0057
737.8118	0.0089
737.9894	0.0139
738.1669	-0.0043
738.3444	0.0254
738.5218	-0.0023
738.6993	0.0174
738.8767	0.0114
739.0541	0.0055
739.2315	0.0121
739.4089	0.0229
739.5863	0.0125
739.7636	0.0028
739.9409	0.0182
740.1182	-0.0103
740.2955	0.0256
740.4728	-0.0293
740.65	-0.0192
740.8272	-0.0005
741.0044	-0.0053
741.1816	0.0202
741.3588	-0.0216
741.5359	0.0076
741.7131	0.0227
741.8902	-0.0086
742.0673	0.0062
742.2444	0.0218
742.4214	0.0034
742.5985	-0.0021
742.7755	0.0022
742.9525	-0.0252
743.1295	-0.0268
743.3064	-0.0034
743.4834	0.0075
743.6603	0.0304
743.8372	-0.0808
744.0141	0.0128
744.191	0.0251
744.3678	-0.0423
744.5446	-0.0067
744.7215	0.0186
744.8982	0.0018
745.075	0.0578
745.2518	0.0027
745.4285	0.0242
745.6052	-0.0229
745.7819	0.0642
745.9586	0.0156
746.1353	-0.0086
746.3119	-0.0093
746.4885	0.0128
746.6651	0.0017
746.8417	-0.0121
747.0183	0.0285
747.1948	0.0078
747.3714	0.0119
747.5479	0.0196
747.7244	0.0103
747.9008	-0.0039
748.0773	0.0347
748.2537	0.0261
748.4301	0.0422
748.6065	-0.0164
748.7829	-0.0079
748.9593	0.0096
749.1356	0.0215
749.3119	-0.0016
749.4882	-0.0023
749.6645	-0.0054
749.8408	0.0045
750.017	0.0102
750.1933	-0.025
750.3695	-0.0216
750.5457	-0.007
750.7218	-0.001
750.898	-0.008
751.0741	-0.0032
751.2502	-0.0085
751.4263	0.0089
751.6024	0.0253
751.7784	0.0049
751.9545	0.0026
752.1305	0.017
752.3065	-0.0046
752.4825	0.0188
752.6584	-0.0043
752.8344	-0.0029
753.0103	-0.0204
753.1862	-0.0013
753.3621	0.0266
753.5379	0.003
753.7138	-0.006
753.8896	0.0212
754.0654	-0.0094
754.2412	0.018
754.417	0.0291
754.5927	0.0206
754.7685	0.0142
754.9442	0.0083
755.1199	0.0067
755.2956	0.006
755.4712	-0.0077
755.6469	0.0006
755.8225	0.0173
755.9981	0.021
756.1736	-0.0034
756.3492	0.0207
756.5248	0.0225
756.7003	0.0018
756.8758	0
757.0513	0.012
757.2267	0.0057
757.4022	-0.0049
757.5776	0.0036
757.753	0.0233
757.9284	0.0066
758.1038	0.0101
758.2791	0.0014
758.4545	-0.01
758.6298	0.0133
758.8051	0.0165
758.9803	0.0205
759.1556	-0.0063
759.3308	0.0071
759.506	0.0029
759.6812	-0.0015
759.8564	0.0132
760.0316	-0.0097
760.2067	0.0113
760.3819	0.0133
760.557	-0.0079
760.732	0.0093
760.9071	0.0104
761.0821	-0.0244
761.2572	0.0183
761.4322	0.0246
761.6072	-0.0117
761.7821	-0.0267
761.9571	0.0239
762.132	0.0019
762.3069	0.0101
762.4818	0.0195
762.6567	0.0406
762.8316	0.0231
763.0064	0.0187
763.1812	0.0389
763.356	-0.0024
763.5308	-0.0015
763.7055	-0.0003
763.8803	-0.0064
764.055	-0.0043
764.2297	-0.0026
764.4044	-0.0048
764.579	-0.0011
764.7537	-0.0049
764.9283	0.0151
765.1029	0.0113
765.2775	0.0039
765.4521	-0.0106
765.6266	0.0016
765.8011	0.0145
765.9756	0.0022
766.1501	-0
766.3246	0.0068
766.4991	0.0221
766.6735	0.0297
766.8479	0.007
767.0223	0.0066
767.1967	0.0378
767.371	0.0031
767.5454	0.0335
767.7197	0.0363
767.894	0.0123
768.0683	0.029
768.2425	0.011
768.4168	0.0156
768.591	-0.0063
768.7652	-0.0202
768.9394	-0.0085
769.1135	-0.0128
769.2877	0.0149
769.4618	0.0221
769.6359	0.008
769.81	0.0412
769.984	-0.0049
770.1581	0.0164
770.3321	0.0059
770.5061	-0.022
770.6801	0.0081
770.8541	0.0281
771.028	0.0361
771.202	0.0117
771.3759	0.0027
771.5498	0.0348
771.7236	0.022
771.8975	0.0258
772.0713	0.0051
772.2451	0.0119
772.4189	0.0219
772.5927	-0.025
772.7665	-0.0181
772.9402	0.0042
773.1139	0
773.2876	-0.0183
773.4613	0.037
773.635	0.0322
773.8086	0.0425
773.9822	0.0171
774.1558	0.017
774.3294	0.0082
774.503	0.0119
774.6765	0.0295
774.8501	-0
775.0236	0.0078
775.1971	0.0062
775.3705	0.0118
775.544	-0.0495
775.7174	0.0218
775.8908	0.0242
776.0642	0.045
776.2376	0.0266
776.4109	-0.0093
776.5843	-0.0346
776.7576	0.0208
776.9309	0.0223
777.1041	-0.0131
777.2774	0.0109
777.4506	0.0148
777.6238	0.0423
777.797	-0.0409
777.9702	-0.0154
778.1434	-0.0025
778.3165	-0.0234
778.4896	-0.0486
778.6627	0.0215
778.8358	-0.0046
779.0089	-0.006
779.1819	-0.0016
779.3549	-0.0046
779.5279	-0.0064
779.7009	0.0525
779.8739	0.0767
780.0468	-0.0035
780.2197	0.0177
780.3926	0.0319
780.5655	0.0006
780.7384	0.0238
780.9112	0.0047
781.0841	0.0204
781.2569	0.017
781.4297	0.0023
781.6024	0.0282
781.7752	0.0452
781.9479	0.027
782.1206	0.0183
782.2933	0.0097
782.466	-0.0042
782.6386	-0.0006
782.8113	0.0076
782.9839	0.0248
783.1565	0.0022
783.329	0.0213
783.5016	0.0029
783.6741	0.0297
783.8466	0.0258
784.0191	0.0341
784.1916	-0.0449
784.3641	-0.0324
784.5365	0.0211
784.7089	0.0008
784.8813	0.0702
785.0537	0.0254
785.2261	-0.021
785.3984	0.0352
785.5707	-0.0272
785.743	0.0396
785.9153	0.0015
786.0876	-0.0365
786.2598	-0.0103
786.432	0.0007
786.6042	0.0477
786.7764	-0.0055
786.9486	0.0134
787.1207	0.038
787.2928	0.0355
787.4649	-0.0134
787.637	0.0006
787.8091	0.0259
787.9811	0.0374
788.1532	-0.0017
788.3252	-0.0017
788.4972	0.0128
788.6691	0.029
788.8411	0.0091
789.013	0.0231
789.1849	0.0108
789.3568	-0.017
789.5287	0.0338
789.7005	-0.0176
789.8723	0.0076
790.0442	-0.0298
790.2159	-0.027
790.3877	0.0449
790.5595	0.018
790.7312	-0.0364
790.9029	0.0157
791.0746	0.0293
791.2463	0.0338
791.4179	-0.0364
791.5896	-0.0049
791.7612	0.004
791.9328	0.0126
792.1044	-0.0243
792.2759	-0.0665
792.4474	0.0402
792.619	-0.009
792.7905	0.0443
792.9619	0.0707
793.1334	0.0425
793.3048	0.0766
793.4762	0.0207
793.6476	-0.0631
793.819	0.002
793.9904	-0.0143
794.1617	-0.0218
794.333	-0.0324
794.5043	0.0453
794.6756	0.0006
794.8469	0.0409
795.0181	-0.0112
795.1893	0.0082
795.3605	0.0136
795.5317	0.0064
795.7029	-0.0083
795.874	-0.0384
796.0452	0.0404
796.2163	0.1204
796.3873	0.0759
796.5584	0.0114
796.7294	-0.0204
796.9005	-0.0297
797.0715	0.0928
797.2425	0.0864
797.4134	0.061
797.5844	0.1173
797.7553	-0.0612
797.9262	0.0511
798.0971	0.0379
798.2679	0.0086
798.4388	0.0668
798.6096	0.0311
798.7804	0.0368
798.9512	-0.0227
799.122	-0.0553
799.2927	0.0858
799.4635	-0.057
799.6342	-0.031
799.8049	0.0668
799.9755	-0.0388
800.1462	0.0856
800.3168	-0.0013
800.4874	-0.118
800.658	0.0438
800.8286	-0.0031
800.9991	0.0047
801.1696	-0.0468
801.3402	-0.0967
801.5106	-0.1188
801.6811	0.0351
801.8516	0.0884
802.022	0.0252
802.1924	0.0148
802.3628	0.0655
802.5332	0.0206
802.7035	0.0592
802.8739	0.0078
803.0442	0.1027
803.2145	-0.0269
803.3847	0.0078
803.555	0.0612
803.7252	0.0256
803.8954	-0.0834
804.0656	-0.0221
804.2358	-0
804.4059	0.019
804.5761	-0.0415
804.7462	0.014
804.9163	-0.0139
805.0864	0.0363
805.2564	-0.0466
805.4264	-0.0146
805.5965	0.1009
805.7665	0.0482
805.9364	0.0158
806.1064	-0.0104
806.2763	0.0639
806.4462	0.0247
806.6161	0.0115
806.786	0.0236
806.9559	-0.0096
807.1257	0.0504
807.2955	-0.01
807.4653	0.0438
807.6351	-0.0012
807.8048	0.0267
807.9746	0.0282
808.1443	0.0165
808.314	0.0495
808.4837	0.1197
808.6533	0.0143
808.8229	0.0126
808.9926	0.031
809.1622	0.0367
809.3317	0.014
809.5013	0.0382
809.6708	0.04
809.8403	0.0016
810.0098	0.0313
810.1793	-0.0475
810.3488	-0.0404
810.5182	0.1084
810.6876	0.0491
810.857	0.0719
811.0264	-0.0245
811.1958	0.0136
811.3651	0.0605
811.5344	0.0855
811.7037	0.1018
811.873	0.0787
812.0422	-0.0574
812.2115	0.0047
812.3807	-0.1309
812.5499	-0.0559
812.7191	-0.0546
812.8882	-0.0214
813.0574	-0.0026
813.2265	-0.0561
813.3956	0.0148
813.5646	0.0454
813.7337	0.0433
813.9027	-0.1163
814.0718	-0.0014
814.2407	-0.0471
814.4097	0.0345
814.5787	0.0881
814.7476	0.0088
814.9165	0.0635
815.0854	-0.0038
815.2543	0.071
815.4232	0.127
815.592	0.018
815.7608	-0.1518
815.9296	-0.0835
816.0984	0.1116
816.2671	-0.2153
816.4359	0.0896
816.6046	-0.0929
816.7733	-0.0754
816.942	0.0108
817.1106	0.1653
817.2793	-0.0386
817.4479	0.042
817.6165	0.027
817.785	0.1068
817.9536	-0.1302
818.1221	0.0062
818.2906	-0.0033
818.4591	0.0299
818.6276	0.0491
818.7961	0.047
818.9645	-0.015
819.1329	0.109
819.3013	0.0032
819.4697	0.18
819.638	0.2559
819.8064	0.0907
819.9747	0.1243
820.143	0.0459
820.3113	0.1222
820.4795	-0.0108
820.6477	-0.018
820.816	0.0328
820.9842	0.0626
821.1523	-0.0461
821.3205	0.0041
821.4886	-0.024
821.6567	-0.0391
821.8248	0.0719
821.9929	-0.1267
822.1609	-0.0164
822.329	0.1146
822.497	0.0898
822.665	-0.0096
822.833	-0.1291
823.0009	0.2078
823.1688	0.2077
823.3367	-0.0109
823.5046	0.1041
823.6725	-0
823.8404	0.0844
824.0082	0.0253
824.176	-0.1474
824.3438	0.2261
824.5116	-0.0249
824.6793	0.1962
824.847	0.0301
825.0147	-0.1145
825.1824	0.0822
825.3501	-0.0196
825.5177	-0.0494
825.6854	-0.005
825.853	-0.1209
826.0206	0.1697
826.1881	-0.0545
826.3557	-0.0717
826.5232	0.0377
826.6907	0.0605
826.8582	0.0847
827.0257	0.2738
827.1931	0.1091
827.3605	-0.1282
827.528	0.0324
827.6953	-0.2337
827.8627	-0.0737
828.03	0.1582
828.1974	-0.0164
828.3647	0.0308
828.532	0.0065
828.6992	0.1627
828.8665	-0.3095
829.0337	0.0352
829.2009	-0.0949
829.3681	-0.0336
829.5352	-0.2096
829.7024	0.1948
829.8695	-0.0919
830.0366	0.1454
830.2037	0.1493
830.3707	0.0525
830.5378	0.072
830.7048	-0
830.8718	0.1992
831.0388	0.0629
831.2057	-0
831.3727	-0.3041
831.5396	-0.0096
831.7065	-0.8241
831.8734	-0.1379
832.0402	0.1392
832.2071	-0.7039
832.3739	0.0895
832.5407	-1.9944
832.7075	-0.2498
832.8742	1.5375
833.041	0.2348
833.2077	0.1803
833.3744	0.3502
833.541	0.0704
833.7077	-0.0123
833.8743	0.0984
834.0409	-0.072
834.2075	0.1384
834.3741	0.0855
834.5407	-0.1812
834.7072	0.3404
834.8737	0.2058
835.0402	0.0558
835.2067	-0.0895
835.3731	0.1937
835.5395	-0.0807
835.706	-0.0748
835.8723	0.0773
836.0387	0.357
836.2051	0.1426
836.3714	0.2283
836.5377	0.6373
836.704	-0.0178
836.8703	-0.0695
837.0365	-0.9235
837.2027	-0
837.3689	-0.0787
837.5351	0.1881
837.7013	-0.1285
837.8674	-0
838.0335	-0.1096
838.1997	0.3823
838.3657	-0
838.5318	-0.3082
838.6978	-0
838.8639	-0.7158
839.0299	0.2645
839.1958	0.2805
839.3618	-0.1059
839.5277	-0.0859
839.6937	0.8005
839.8596	0.4157
840.0254	0.3046
840.1913	-0
840.3571	0.1538
840.523	-0
840.6888	0.0386
840.8545	-0.5136
841.0203	-0.0053
841.186	-0.0684
841.3517	-0.0526
841.5174	0.3194
841.6831	-0.0129
841.8488	0.0833
842.0144	0.5853
842.18	0.5259
842.3456	1.3339
842.5112	0.5315
842.6767	-0.0785
842.8422	0.2147
843.0077	0.0356
843.1732	-0.4392
843.3387	-0.0954
843.5042	-0.1511
843.6696	-0.1414
843.835	-0.2435
844.0004	-0.039
844.1657	-0
844.3311	0.7805
844.4964	-0.457
844.6617	0.8415
844.827	-0
844.9923	0.323
845.1575	-0.0444
845.3227	0.089
845.4879	-0.4642
845.6531	0.1025
845.8183	0.3237
845.9834	-0
846.1485	0.4511
846.3136	-0.3624
846.4787	-0
846.6438	-0.1362
846.8088	-0
846.9738	-0.0857
847.1388	0.9448
847.3038	0.8558
847.4687	-0
847.6337	-0.2889
847.7986	-0.4469
847.9635	-0.1207
848.1284	1.5899
848.2932	0.0958
848.458	-0
848.6228	1.009
848.7876	-0
848.9524	-0.5258
849.1172	-1.8424
849.2819	-0.2725
849.4466	1.4426
849.6113	0.4371
849.7759	-0
849.9406	-0.056
850.1052	-0
850.2698	0.3708
850.4344	-0.6056
850.599	0.3068
850.7635	0.129
850.928	0.3219
851.0925	0.4058
851.257	0.3203
851.4215	0.2658
851.5859	0.0839
851.7503	-0
851.9147	-0.2923
852.0791	0.3134
852.2434	0.02
852.4078	0.6544
852.5721	0.4083
852.7364	-0.2044
852.9007	-0.0574
853.0649	0.1914
853.2291	0.0599
853.3934	-0
853.5575	-0.0542
853.7217	0.6447
853.8859	-0
854.05	-0.6502
854.2141	1.5756
854.3782	0.0944
854.5423	-0.1275
854.7063	0.1972
854.8703	0.0828
855.0343	0.2045
855.1983	-0.1065
855.3623	0.0833
855.5262	-0
855.6901	0.5857
855.854	0.2375
856.0179	0.1955
856.1818	-0
856.3456	-0
856.5094	-0.4389
856.6732	0.7819
856.837	-1.4046
857.0008	-0
857.1645	-0
857.3282	-0.5888
857.4919	0.1699
857.6556	-0.3942
857.8192	-0.192
857.9828	-0.0325
858.1465	0.3065
858.31	-0
858.4736	-0.6582
858.6372	0.2876
858.8007	-0.1199
858.9642	0.3396
859.1277	-0
859.2911	-0.7448
859.4546	-0
859.618	0.3564
859.7814	-0.209
859.9448	-0
860.1081	-0
860.2715	-0
860.4348	-0.2562
860.5981	0.3345
860.7614	-0
860.9246	-0.1421
861.0879	-0.1089
861.2511	-0.5702
861.4143	-0
861.5774	-0.3384
861.7406	-0.3151
861.9037	-0
862.0668	-0
862.2299	1.0439
862.393	0.8321
862.556	-0
862.7191	-0
862.8821	0.2893
863.0451	1.1628
863.208	0.036
863.371	-0
863.5339	0.1218
863.6968	-0
863.8597	-0
864.0225	-0
864.1854	-0.1096
864.3482	-1.3168
864.511	0.1343
864.6737	-0.1823
864.8365	0.2547
864.9992	0.332
865.1619	-0.1415
865.3246	-1.6684
865.4873	-0
865.65	0.0342
865.8126	0.4492
865.9752	-0.3384
866.1378	0.6962
866.3004	0.3563
866.4629	-1.6902
866.6254	-0
866.7879	0.7592
866.9504	-0
867.1129	-0.3216
867.2753	-0.2573
867.4377	0.3563
867.6001	-0
867.7625	-0.0613
867.9249	-0
868.0872	0.187
868.2495	0.3056
868.4118	1.6684
868.5741	-0.507
868.7363	-0
868.8986	-0.6241
869.0608	-0.4315
869.223	-0.4303
869.3851	-0
869.5473	0.191
869.7094	-0
869.8715	-0
870.0336	0.0775
870.1957	-0.6253
870.3577	0.4758
870.5197	0.1154
870.6817	-0.5895
870.8437	0.0565
871.0057	0.2523
871.1676	-0.0679
871.3295	-0
871.4914	-1.3979
871.6533	-0.3259
871.8151	0.4684
871.977	-0.4756
872.1388	-0.3374
872.3006	-0.4752
872.4623	-0.6062
872.6241	0.6639
872.7858	0.3857
872.9475	-0
873.1092	0.211
873.2709	0.4098
873.4325	-0
873.5941	-0
873.7557	-0
873.9173	0.1369
874.0789	-0.0423
874.2404	-0
874.4019	-0.1536
874.5634	-0
874.7249	-0
874.8863	-0.069
875.0478	-0.1458
875.2092	0.7167
875.3706	0.2195
875.5319	-0
875.6933	-0.0778
875.8546	-0.2087
876.0159	-0.0076
876.1772	-0
876.3385	0.3316
876.4997	-0
876.6609	-0
876.8221	-0
876.9833	0.1917
877.1445	0.851
877.3056	-0.9416
877.4667	0.1504
877.6278	0.5015
877.7889	-0
877.9499	0.1995
878.111	-0.7634
878.272	-0
878.433	-0
878.5939	-0.1844
878.7549	-0
878.9158	1.711
879.0767	0.1815
879.2376	-0
879.3984	0.4759
879.5593	-0
879.7201	-1.2587
879.8809	-0.3887
880.0417	-0.0781
880.2024	0.5136
880.3632	-0.2053
880.5239	0.014
880.6846	-0.091
880.8452	-0.3759
881.0059	-0
881.1665	0.6052
881.3271	-0
881.4877	1.0342
881.6483	-0.7739
881.8088	0.7634
881.9693	-0
882.1298	-0
882.2903	-0
