Data from D4ACN5uM440nmA_Absorbance_13-50-25-927.txt Node
Date: Fri Feb 21 13:50:25 GMT 2025
User: LASERRRRR
Spectrometer: FLMT03099
Trigger mode: 0
Integration Time (sec): 1.500000E-2
Scans to average: 1
Electric dark correction enabled: true
Nonlinearity correction enabled: false
Boxcar width: 0
XAxis mode: Wavelengths
Number of Pixels in Spectrum: 3648
>>>>>Begin Spectral Data<<<<<
179.3399	0.8799
179.5586	0.8799
179.7771	0.8799
179.9957	0.0383
180.2143	-0
180.4329	0.0763
180.6514	-0.8431
180.8699	-0
181.0885	-0
181.307	-0
181.5255	0.3818
181.744	-0.261
181.9625	1.4426
182.181	0.4008
182.3994	-0.5436
182.6179	-0.4885
182.8363	-0
183.0547	0.3288
183.2732	0.1352
183.4916	0.2163
183.71	0.1692
183.9284	0.0064
184.1467	0.1003
184.3651	0.168
184.5835	0.2133
184.8018	0.0852
185.0201	0.0943
185.2385	0.2456
185.4568	0.0085
185.6751	0.052
185.8934	0.3331
186.1117	-0.0081
186.3299	0.3923
186.5482	0.2406
186.7664	0.1892
186.9847	0.1583
187.2029	0.1026
187.4211	0.1139
187.6393	0.1577
187.8575	0.6195
188.0757	0.2783
188.2939	-0.0313
188.512	0.2129
188.7302	0.0532
188.9483	0.2614
189.1665	0.9679
189.3846	0.3329
189.6027	0.0381
189.8208	0.1623
190.0389	0.1694
190.257	0.1279
190.475	-0.0557
190.6931	0.4362
190.9111	0.0562
191.1292	0.066
191.3472	0.0383
191.5652	0.3722
191.7832	0.22
192.0012	0.1887
192.2192	0.2783
192.4371	0.2514
192.6551	0.2041
192.873	0.0979
193.091	0.2896
193.3089	0.198
193.5268	0.2862
193.7447	0.1223
193.9626	0.1683
194.1805	0.351
194.3984	0.3092
194.6162	0.2353
194.8341	0.3099
195.0519	0.3138
195.2697	0.3398
195.4875	0.3449
195.7054	0.2365
195.9231	0.2698
196.1409	0.3299
196.3587	0.2866
196.5765	0.3021
196.7942	0.396
197.012	0.333
197.2297	0.3387
197.4474	0.4716
197.6651	0.3556
197.8828	0.4035
198.1005	0.3946
198.3182	0.4023
198.5358	0.3993
198.7535	0.4317
198.9711	0.3849
199.1888	0.3659
199.4064	0.4201
199.624	0.4134
199.8416	0.3489
200.0592	0.3862
200.2767	0.4019
200.4943	0.4098
200.7119	0.3974
200.9294	0.4263
201.1469	0.4076
201.3645	0.3917
201.582	0.4076
201.7995	0.4511
202.017	0.4041
202.2344	0.3846
202.4519	0.3897
202.6694	0.404
202.8868	0.4255
203.1042	0.408
203.3217	0.3662
203.5391	0.4249
203.7565	0.3796
203.9739	0.3587
204.1913	0.3759
204.4086	0.3513
204.626	0.3745
204.8433	0.372
205.0607	0.36
205.278	0.394
205.4953	0.3392
205.7126	0.3523
205.9299	0.3425
206.1472	0.3107
206.3644	0.3519
206.5817	0.339
206.7989	0.3365
207.0162	0.3111
207.2334	0.3205
207.4506	0.3168
207.6678	0.3022
207.885	0.3316
208.1022	0.3409
208.3194	0.3
208.5365	0.306
208.7537	0.2981
208.9708	0.3177
209.1879	0.2825
209.405	0.2673
209.6222	0.2634
209.8392	0.2867
210.0563	0.2993
210.2734	0.2693
210.4905	0.2834
210.7075	0.2584
210.9245	0.2811
211.1416	0.2791
211.3586	0.2584
211.5756	0.2583
211.7926	0.2719
212.0096	0.269
212.2265	0.261
212.4435	0.2643
212.6604	0.2643
212.8774	0.2448
213.0943	0.2797
213.3112	0.2556
213.5281	0.2305
213.745	0.2453
213.9619	0.2425
214.1788	0.2539
214.3956	0.2502
214.6125	0.2682
214.8293	0.2507
215.0461	0.2608
215.2629	0.2482
215.4798	0.2577
215.6965	0.2367
215.9133	0.2375
216.1301	0.2511
216.3469	0.2548
216.5636	0.2444
216.7803	0.2431
216.9971	0.2558
217.2138	0.2383
217.4305	0.2474
217.6472	0.2241
217.8639	0.2524
218.0805	0.2657
218.2972	0.2515
218.5138	0.2499
218.7305	0.2651
218.9471	0.2358
219.1637	0.2634
219.3803	0.2704
219.5969	0.2525
219.8135	0.2643
220.0301	0.2502
220.2466	0.2515
220.4632	0.2487
220.6797	0.254
220.8962	0.263
221.1127	0.279
221.3292	0.2637
221.5457	0.2697
221.7622	0.2564
221.9787	0.2824
222.1951	0.27
222.4116	0.2777
222.628	0.2911
222.8444	0.2782
223.0608	0.2735
223.2772	0.2756
223.4936	0.2831
223.71	0.2887
223.9264	0.2876
224.1427	0.2776
224.3591	0.2891
224.5754	0.2807
224.7917	0.2892
225.008	0.3062
225.2243	0.3053
225.4406	0.2924
225.6569	0.302
225.8732	0.3111
226.0894	0.309
226.3057	0.3001
226.5219	0.312
226.7381	0.3068
226.9543	0.3258
227.1705	0.3209
227.3867	0.3311
227.6029	0.3224
227.8191	0.3422
228.0352	0.3309
228.2513	0.3499
228.4675	0.3434
228.6836	0.355
228.8997	0.3414
229.1158	0.3539
229.3319	0.3507
229.548	0.3514
229.764	0.3599
229.9801	0.3762
230.1961	0.3714
230.4121	0.3615
230.6282	0.3769
230.8442	0.3817
231.0602	0.3817
231.2761	0.378
231.4921	0.3904
231.7081	0.3977
231.924	0.4
232.14	0.4016
232.3559	0.3964
232.5718	0.4188
232.7877	0.3993
233.0036	0.4119
233.2195	0.3995
233.4353	0.4067
233.6512	0.4211
233.867	0.4268
234.0829	0.4271
234.2987	0.4177
234.5145	0.4424
234.7303	0.4297
234.9461	0.4382
235.1619	0.4496
235.3776	0.441
235.5934	0.4328
235.8091	0.4425
236.0249	0.4529
236.2406	0.4346
236.4563	0.4398
236.672	0.4266
236.8877	0.4504
237.1034	0.4387
237.319	0.4566
237.5347	0.4504
237.7503	0.4495
237.966	0.4641
238.1816	0.4487
238.3972	0.4594
238.6128	0.4732
238.8284	0.466
239.0439	0.4553
239.2595	0.4608
239.475	0.4644
239.6906	0.4652
239.9061	0.4518
240.1216	0.4663
240.3371	0.465
240.5526	0.4641
240.7681	0.4637
240.9836	0.4593
241.199	0.4548
241.4145	0.452
241.6299	0.459
241.8453	0.4417
242.0607	0.4409
242.2761	0.4409
242.4915	0.4324
242.7069	0.4172
242.9223	0.4174
243.1376	0.4012
243.353	0.409
243.5683	0.4033
243.7836	0.4
243.9989	0.3739
244.2142	0.379
244.4295	0.3779
244.6448	0.3718
244.86	0.3601
245.0753	0.3512
245.2905	0.3505
245.5057	0.3396
245.721	0.339
245.9362	0.3304
246.1514	0.319
246.3665	0.3086
246.5817	0.2984
246.7969	0.2995
247.012	0.2944
247.2271	0.297
247.4423	0.2817
247.6574	0.2837
247.8725	0.2679
248.0876	0.2729
248.3026	0.2668
248.5177	0.2546
248.7328	0.2534
248.9478	0.2471
249.1628	0.2483
249.3779	0.241
249.5929	0.2406
249.8079	0.2378
250.0228	0.233
250.2378	0.2282
250.4528	0.2303
250.6677	0.2299
250.8827	0.2191
251.0976	0.2121
251.3125	0.2214
251.5274	0.2133
251.7423	0.2068
251.9572	0.2078
252.172	0.2026
252.3869	0.2042
252.6017	0.2062
252.8166	0.2036
253.0314	0.197
253.2462	0.1981
253.461	0.1925
253.6758	0.1987
253.8906	0.1933
254.1053	0.1913
254.3201	0.1889
254.5348	0.1876
254.7496	0.1865
254.9643	0.1928
255.179	0.1888
255.3937	0.1893
255.6083	0.1928
255.823	0.1853
256.0377	0.1796
256.2523	0.1789
256.467	0.1875
256.6816	0.1769
256.8962	0.1807
257.1108	0.1803
257.3254	0.1827
257.54	0.1742
257.7545	0.1824
257.9691	0.1855
258.1836	0.171
258.3981	0.1789
258.6127	0.1704
258.8272	0.1844
259.0417	0.1751
259.2561	0.1765
259.4706	0.1803
259.6851	0.1843
259.8995	0.1797
260.114	0.1775
260.3284	0.1721
260.5428	0.1731
260.7572	0.1725
260.9716	0.1866
261.186	0.1775
261.4003	0.1786
261.6147	0.1772
261.829	0.1811
262.0433	0.1759
262.2577	0.1811
262.472	0.1769
262.6863	0.1835
262.9005	0.1771
263.1148	0.1799
263.3291	0.1832
263.5433	0.1809
263.7576	0.181
263.9718	0.1846
264.186	0.1853
264.4002	0.1856
264.6144	0.1873
264.8286	0.1858
265.0427	0.1811
265.2569	0.1829
265.471	0.1901
265.6851	0.1899
265.8993	0.1811
266.1134	0.1819
266.3275	0.1849
266.5415	0.1862
266.7556	0.1814
266.9697	0.1868
267.1837	0.188
267.3978	0.1804
267.6118	0.1792
267.8258	0.1816
268.0398	0.1871
268.2538	0.1865
268.4677	0.1832
268.6817	0.1881
268.8957	0.1806
269.1096	0.1773
269.3235	0.1804
269.5374	0.183
269.7514	0.1832
269.9652	0.1808
270.1791	0.1727
270.393	0.179
270.6068	0.1782
270.8207	0.1724
271.0345	0.1805
271.2483	0.1678
271.4622	0.1769
271.676	0.178
271.8897	0.1767
272.1035	0.1791
272.3173	0.1784
272.531	0.1786
272.7448	0.1737
272.9585	0.1759
273.1722	0.1754
273.3859	0.1778
273.5996	0.1796
273.8133	0.1806
274.0269	0.1735
274.2406	0.1771
274.4542	0.178
274.6679	0.184
274.8815	0.1877
275.0951	0.1865
275.3087	0.1888
275.5223	0.1841
275.7358	0.1922
275.9494	0.1857
276.1629	0.1864
276.3765	0.1839
276.59	0.181
276.8035	0.1819
277.017	0.1948
277.2305	0.1876
277.444	0.1864
277.6574	0.1907
277.8709	0.1982
278.0843	0.1933
278.2978	0.1853
278.5112	0.189
278.7246	0.1853
278.938	0.1852
279.1513	0.1944
279.3647	0.191
279.5781	0.1831
279.7914	0.1819
280.0047	0.1878
280.2181	0.1919
280.4314	0.1873
280.6447	0.1946
280.8579	0.1823
281.0712	0.1899
281.2845	0.1867
281.4977	0.1854
281.711	0.187
281.9242	0.1895
282.1374	0.187
282.3506	0.186
282.5638	0.1867
282.7769	0.1823
282.9901	0.1858
283.2033	0.1847
283.4164	0.1794
283.6295	0.1808
283.8426	0.1895
284.0557	0.1861
284.2688	0.185
284.4819	0.182
284.695	0.1881
284.908	0.1859
285.1211	0.1896
285.3341	0.1848
285.5471	0.1873
285.7601	0.1874
285.9731	0.1915
286.1861	0.1949
286.3991	0.1885
286.612	0.1871
286.825	0.1884
287.0379	0.1845
287.2508	0.1858
287.4637	0.1824
287.6766	0.1872
287.8895	0.1834
288.1024	0.194
288.3152	0.1896
288.5281	0.1835
288.7409	0.1929
288.9538	0.1847
289.1666	0.1856
289.3794	0.1892
289.5922	0.1878
289.8049	0.194
290.0177	0.1865
290.2304	0.1869
290.4432	0.1946
290.6559	0.1937
290.8686	0.1948
291.0813	0.1906
291.294	0.1865
291.5067	0.1877
291.7194	0.1903
291.932	0.1842
292.1447	0.1879
292.3573	0.1908
292.5699	0.1908
292.7825	0.1851
292.9951	0.1866
293.2077	0.1905
293.4203	0.1884
293.6328	0.1843
293.8454	0.1904
294.0579	0.1884
294.2704	0.195
294.4829	0.1911
294.6954	0.1895
294.9079	0.1895
295.1204	0.1799
295.3328	0.1914
295.5453	0.1914
295.7577	0.1928
295.9701	0.1841
296.1825	0.1878
296.3949	0.1866
296.6073	0.1839
296.8197	0.1897
297.0321	0.1901
297.2444	0.1847
297.4567	0.1922
297.6691	0.1834
297.8814	0.187
298.0937	0.1883
298.306	0.1848
298.5182	0.1897
298.7305	0.1888
298.9428	0.1925
299.155	0.1814
299.3672	0.1858
299.5794	0.1899
299.7916	0.1909
300.0038	0.1883
300.216	0.1873
300.4282	0.1869
300.6403	0.1906
300.8525	0.1917
301.0646	0.1933
301.2767	0.1862
301.4888	0.1912
301.7009	0.1921
301.913	0.1901
302.125	0.1909
302.3371	0.1897
302.5491	0.1909
302.7612	0.1931
302.9732	0.192
303.1852	0.1887
303.3972	0.192
303.6092	0.1862
303.8211	0.1857
304.0331	0.1875
304.245	0.1834
304.457	0.1902
304.6689	0.1865
304.8808	0.1802
305.0927	0.185
305.3046	0.1801
305.5164	0.1826
305.7283	0.1807
305.9401	0.1783
306.152	0.1781
306.3638	0.1789
306.5756	0.181
306.7874	0.1746
306.9992	0.1719
307.2109	0.1716
307.4227	0.1674
307.6344	0.1695
307.8462	0.166
308.0579	0.1726
308.2696	0.1669
308.4813	0.1673
308.693	0.1636
308.9046	0.1656
309.1163	0.1585
309.328	0.1605
309.5396	0.1572
309.7512	0.1594
309.9628	0.1561
310.1744	0.1495
310.386	0.1481
310.5976	0.1482
310.8091	0.1532
311.0207	0.1457
311.2322	0.1449
311.4437	0.1469
311.6552	0.1405
311.8667	0.144
312.0782	0.1437
312.2897	0.1451
312.5012	0.141
312.7126	0.1343
312.924	0.1425
313.1355	0.1396
313.3469	0.1392
313.5583	0.133
313.7696	0.1342
313.981	0.1424
314.1924	0.134
314.4037	0.1373
314.6151	0.131
314.8264	0.1436
315.0377	0.1337
315.249	0.1338
315.4603	0.1268
315.6716	0.1352
315.8828	0.1282
316.0941	0.1309
316.3053	0.1278
316.5165	0.1386
316.7277	0.1282
316.9389	0.1325
317.1501	0.1324
317.3613	0.1239
317.5724	0.1343
317.7836	0.1261
317.9947	0.1248
318.2058	0.1306
318.417	0.1321
318.6281	0.1314
318.8391	0.1329
319.0502	0.1268
319.2613	0.1277
319.4723	0.1245
319.6834	0.132
319.8944	0.1303
320.1054	0.1318
320.3164	0.1235
320.5274	0.1268
320.7383	0.1303
320.9493	0.1279
321.1602	0.1258
321.3712	0.1283
321.5821	0.1222
321.793	0.1352
322.0039	0.1278
322.2148	0.1324
322.4257	0.1309
322.6365	0.125
322.8474	0.1296
323.0582	0.129
323.269	0.1301
323.4798	0.1276
323.6906	0.129
323.9014	0.1287
324.1122	0.1212
324.3229	0.1353
324.5337	0.1359
324.7444	0.132
324.9551	0.1316
325.1658	0.1305
325.3765	0.1321
325.5872	0.136
325.7979	0.1333
326.0085	0.13
326.2192	0.1258
326.4298	0.1357
326.6404	0.1368
326.851	0.128
327.0616	0.1345
327.2722	0.1325
327.4828	0.1363
327.6933	0.141
327.9039	0.1314
328.1144	0.1402
328.3249	0.1408
328.5354	0.1361
328.7459	0.1338
328.9564	0.1428
329.1669	0.1447
329.3773	0.1447
329.5878	0.1411
329.7982	0.1383
330.0086	0.1455
330.219	0.1378
330.4294	0.1442
330.6398	0.1391
330.8502	0.1397
331.0605	0.1379
331.2708	0.1402
331.4812	0.1421
331.6915	0.1435
331.9018	0.1362
332.1121	0.1455
332.3224	0.1414
332.5326	0.1381
332.7429	0.1474
332.9531	0.1423
333.1633	0.1394
333.3735	0.1405
333.5837	0.1434
333.7939	0.1451
334.0041	0.1469
334.2143	0.1392
334.4244	0.147
334.6346	0.1428
334.8447	0.1396
335.0548	0.1443
335.2649	0.1534
335.475	0.1457
335.685	0.1473
335.8951	0.1359
336.1051	0.147
336.3152	0.1514
336.5252	0.1414
336.7352	0.1461
336.9452	0.1416
337.1552	0.1437
337.3652	0.1412
337.5751	0.1424
337.7851	0.1455
337.995	0.1379
338.2049	0.1432
338.4148	0.1418
338.6247	0.1496
338.8346	0.141
339.0445	0.1485
339.2543	0.1373
339.4642	0.1418
339.674	0.1433
339.8838	0.1512
340.0936	0.1492
340.3034	0.1463
340.5132	0.1409
340.7229	0.1477
340.9327	0.1559
341.1424	0.1448
341.3522	0.139
341.5619	0.1517
341.7716	0.1545
341.9813	0.1494
342.1909	0.1537
342.4006	0.1527
342.6102	0.15
342.8199	0.155
343.0295	0.1495
343.2391	0.1561
343.4487	0.1583
343.6583	0.1618
343.8679	0.1531
344.0774	0.1575
344.287	0.1556
344.4965	0.1666
344.706	0.1594
344.9155	0.1568
345.125	0.1601
345.3345	0.1612
345.544	0.165
345.7534	0.1641
345.9629	0.1617
346.1723	0.1673
346.3817	0.1671
346.5911	0.1696
346.8005	0.1686
347.0099	0.1668
347.2193	0.1755
347.4286	0.1799
347.638	0.1648
347.8473	0.1744
348.0566	0.1747
348.2659	0.1729
348.4752	0.1719
348.6845	0.1705
348.8937	0.1718
349.103	0.1735
349.3122	0.1778
349.5214	0.1801
349.7306	0.1797
349.9398	0.1788
350.149	0.1775
350.3582	0.178
350.5674	0.1784
350.7765	0.1775
350.9856	0.1745
351.1948	0.178
351.4039	0.181
351.613	0.1813
351.822	0.1844
352.0311	0.1775
352.2402	0.1793
352.4492	0.1886
352.6582	0.1804
352.8672	0.1866
353.0762	0.1863
353.2852	0.1813
353.4942	0.1875
353.7032	0.179
353.9121	0.1785
354.1211	0.1898
354.33	0.1878
354.5389	0.1806
354.7478	0.181
354.9567	0.1823
355.1655	0.1856
355.3744	0.1834
355.5833	0.1826
355.7921	0.1907
356.0009	0.1829
356.2097	0.1862
356.4185	0.185
356.6273	0.1823
356.8361	0.1886
357.0448	0.1945
357.2536	0.1838
357.4623	0.1898
357.671	0.1924
357.8797	0.1929
358.0884	0.1882
358.2971	0.19
358.5057	0.1885
358.7144	0.1954
358.923	0.1948
359.1316	0.1977
359.3402	0.1978
359.5488	0.1915
359.7574	0.197
359.966	0.2019
360.1746	0.2034
360.3831	0.196
360.5916	0.2005
360.8002	0.205
361.0087	0.2011
361.2172	0.2017
361.4256	0.2005
361.6341	0.2005
361.8426	0.1963
362.051	0.2076
362.2594	0.2055
362.4678	0.2081
362.6762	0.21
362.8846	0.2074
363.093	0.2114
363.3014	0.2115
363.5097	0.2057
363.718	0.2145
363.9264	0.2137
364.1347	0.2214
364.343	0.2166
364.5513	0.2063
364.7595	0.2221
364.9678	0.214
365.176	0.2192
365.3842	0.2229
365.5925	0.2145
365.8007	0.2235
366.0089	0.2252
366.217	0.2289
366.4252	0.2255
366.6333	0.2278
366.8415	0.2289
367.0496	0.2242
367.2577	0.24
367.4658	0.2283
367.6739	0.2285
367.882	0.2415
368.09	0.2224
368.2981	0.2352
368.5061	0.2278
368.7141	0.2303
368.9221	0.2349
369.1301	0.2423
369.3381	0.2405
369.5461	0.2454
369.754	0.2374
369.962	0.2263
370.1699	0.2412
370.3778	0.2515
370.5857	0.2397
370.7936	0.2411
371.0015	0.2346
371.2093	0.2329
371.4172	0.2359
371.625	0.2415
371.8328	0.2488
372.0406	0.2551
372.2484	0.2434
372.4562	0.2484
372.664	0.2492
372.8717	0.2462
373.0795	0.2497
373.2872	0.2533
373.4949	0.2627
373.7026	0.2509
373.9103	0.2467
374.118	0.2539
374.3256	0.256
374.5333	0.2548
374.7409	0.2574
374.9485	0.2515
375.1561	0.2606
375.3637	0.2559
375.5713	0.2616
375.7789	0.254
375.9864	0.2537
376.194	0.2636
376.4015	0.2585
376.609	0.2645
376.8165	0.2645
377.024	0.2643
377.2315	0.2646
377.4389	0.2576
377.6464	0.2726
377.8538	0.2715
378.0612	0.2695
378.2686	0.2677
378.476	0.2789
378.6834	0.2692
378.8908	0.2676
379.0981	0.2683
379.3055	0.2707
379.5128	0.2702
379.7201	0.2753
379.9274	0.2705
380.1347	0.2718
380.342	0.2862
380.5492	0.2742
380.7565	0.2802
380.9637	0.281
381.1709	0.2712
381.3781	0.2795
381.5853	0.2733
381.7925	0.2815
381.9997	0.2861
382.2068	0.2795
382.4139	0.2801
382.6211	0.2858
382.8282	0.2821
383.0353	0.2823
383.2424	0.2731
383.4494	0.2814
383.6565	0.2831
383.8635	0.282
384.0706	0.2916
384.2776	0.2888
384.4846	0.2809
384.6916	0.2924
384.8986	0.2892
385.1055	0.2961
385.3125	0.2884
385.5194	0.2947
385.7263	0.2788
385.9333	0.2879
386.1402	0.2838
386.347	0.2805
386.5539	0.2869
386.7608	0.2838
386.9676	0.2943
387.1744	0.2847
387.3813	0.2817
387.5881	0.2717
387.7948	0.2921
388.0016	0.2908
388.2084	0.2881
388.4151	0.2781
388.6219	0.2784
388.8286	0.2898
389.0353	0.2874
389.242	0.2878
389.4487	0.2773
389.6553	0.2743
389.862	0.2781
390.0686	0.2846
390.2753	0.2689
390.4819	0.2808
390.6885	0.2806
390.8951	0.2784
391.1016	0.268
391.3082	0.2848
391.5147	0.2697
391.7213	0.2687
391.9278	0.2681
392.1343	0.276
392.3408	0.2663
392.5473	0.2674
392.7537	0.2665
392.9602	0.2631
393.1666	0.2617
393.373	0.2627
393.5794	0.2501
393.7858	0.2689
393.9922	0.2564
394.1986	0.2535
394.4049	0.2747
394.6113	0.2507
394.8176	0.2618
395.0239	0.2573
395.2302	0.2543
395.4365	0.2625
395.6428	0.255
395.8491	0.2553
396.0553	0.246
396.2615	0.2542
396.4678	0.2587
396.674	0.2404
396.8802	0.2467
397.0863	0.242
397.2925	0.2435
397.4987	0.2434
397.7048	0.2551
397.9109	0.2398
398.117	0.2445
398.3231	0.2423
398.5292	0.2403
398.7353	0.2414
398.9413	0.2357
399.1474	0.2447
399.3534	0.2485
399.5594	0.2427
399.7654	0.2451
399.9714	0.2414
400.1774	0.2344
400.3833	0.2434
400.5893	0.2457
400.7952	0.2465
401.0011	0.2354
401.207	0.2368
401.4129	0.2384
401.6188	0.2401
401.8247	0.2518
402.0305	0.2445
402.2364	0.2539
402.4422	0.2542
402.648	0.2427
402.8538	0.2408
403.0596	0.2379
403.2654	0.247
403.4711	0.2398
403.6768	0.2464
403.8826	0.2367
404.0883	0.2455
404.294	0.2383
404.4997	0.2373
404.7054	0.2378
404.911	0.2391
405.1167	0.2445
405.3223	0.239
405.5279	0.2329
405.7335	0.2434
405.9391	0.2299
406.1447	0.2418
406.3502	0.2402
406.5558	0.2353
406.7613	0.2498
406.9668	0.2494
407.1724	0.2432
407.3778	0.2482
407.5833	0.2356
407.7888	0.2469
407.9942	0.2406
408.1997	0.2478
408.4051	0.2411
408.6105	0.2434
408.8159	0.2275
409.0213	0.2527
409.2267	0.2437
409.432	0.245
409.6374	0.2457
409.8427	0.2344
410.048	0.2463
410.2533	0.2328
410.4586	0.2306
410.6639	0.2514
410.8691	0.2387
411.0744	0.2504
411.2796	0.234
411.4848	0.2482
411.69	0.2288
411.8952	0.2488
412.1004	0.2371
412.3056	0.2486
412.5107	0.2406
412.7158	0.2461
412.921	0.2366
413.1261	0.2411
413.3312	0.2389
413.5362	0.251
413.7413	0.239
413.9464	0.2292
414.1514	0.2307
414.3564	0.2251
414.5614	0.2288
414.7664	0.2319
414.9714	0.2344
415.1764	0.2407
415.3813	0.2371
415.5863	0.2419
415.7912	0.2371
415.9961	0.2376
416.201	0.2303
416.4059	0.2259
416.6108	0.232
416.8156	0.2303
417.0205	0.2356
417.2253	0.2336
417.4301	0.2489
417.6349	0.2322
417.8397	0.2291
418.0445	0.2401
418.2492	0.2247
418.454	0.2351
418.6587	0.2333
418.8634	0.2313
419.0681	0.2311
419.2728	0.2251
419.4775	0.2457
419.6822	0.2229
419.8868	0.2249
420.0915	0.2272
420.2961	0.2212
420.5007	0.2272
420.7053	0.2269
420.9099	0.2332
421.1144	0.2148
421.319	0.2254
421.5235	0.2173
421.728	0.2261
421.9325	0.2227
422.137	0.219
422.3415	0.2125
422.546	0.2161
422.7504	0.2151
422.9549	0.2335
423.1593	0.205
423.3637	0.2144
423.5681	0.2068
423.7725	0.2085
423.9769	0.2138
424.1812	0.2042
424.3856	0.2076
424.5899	0.2086
424.7942	0.2014
424.9985	0.204
425.2028	0.2062
425.4071	0.2062
425.6113	0.2095
425.8156	0.1986
426.0198	0.2052
426.224	0.2143
426.4282	0.1888
426.6324	0.2014
426.8366	0.2003
427.0407	0.196
427.2449	0.1952
427.449	0.1963
427.6531	0.2094
427.8572	0.1948
428.0613	0.2022
428.2654	0.1861
428.4694	0.1773
428.6735	0.1852
428.8775	0.1905
429.0815	0.1866
429.2855	0.189
429.4895	0.1837
429.6935	0.1793
429.8975	0.1806
430.1014	0.1844
430.3053	0.1899
430.5093	0.1652
430.7132	0.1778
430.9171	0.1719
431.1209	0.174
431.3248	0.1679
431.5286	0.1712
431.7325	0.1712
431.9363	0.159
432.1401	0.1611
432.3439	0.1692
432.5477	0.159
432.7514	0.1587
432.9552	0.1577
433.1589	0.1544
433.3627	0.1544
433.5664	0.1457
433.7701	0.1542
433.9737	0.1545
434.1774	0.1483
434.3811	0.149
434.5847	0.1478
434.7883	0.1484
434.9919	0.1407
435.1955	0.1481
435.3991	0.1437
435.6027	0.1419
435.8062	0.1494
436.0098	0.136
436.2133	0.137
436.4168	0.126
436.6203	0.1296
436.8238	0.1246
437.0272	0.129
437.2307	0.1222
437.4341	0.1273
437.6375	0.1257
437.841	0.117
438.0443	0.1279
438.2477	0.1091
438.4511	0.1082
438.6545	0.119
438.8578	0.1167
439.0611	0.114
439.2644	0.1166
439.4677	0.112
439.671	0.1101
439.8743	0.1175
440.0775	0.1028
440.2808	0.1065
440.484	0.1074
440.6872	0.0956
440.8904	0.0936
441.0936	0.1046
441.2967	0.0943
441.4999	0.0921
441.703	0.0968
441.9062	0.0884
442.1093	0.1009
442.3124	0.0915
442.5155	0.0906
442.7185	0.0858
442.9216	0.077
443.1246	0.0898
443.3276	0.0862
443.5307	0.0777
443.7337	0.089
443.9366	0.0683
444.1396	0.0763
444.3426	0.0733
444.5455	0.0662
444.7484	0.0708
444.9513	0.0648
445.1542	0.0791
445.3571	0.0732
445.56	0.0712
445.7628	0.0661
445.9657	0.0637
446.1685	0.0674
446.3713	0.0713
446.5741	0.065
446.7769	0.0771
446.9797	0.0619
447.1824	0.0589
447.3852	0.0433
447.5879	0.0585
447.7906	0.0482
447.9933	0.0621
448.196	0.0475
448.3986	0.0509
448.6013	0.049
448.8039	0.0559
449.0066	0.0548
449.2092	0.0621
449.4118	0.0498
449.6143	0.0475
449.8169	0.0487
450.0195	0.0464
450.222	0.0557
450.4245	0.0492
450.627	0.0431
450.8295	0.0434
451.032	0.0343
451.2345	0.0416
451.4369	0.0369
451.6394	0.0331
451.8418	0.0393
452.0442	0.0411
452.2466	0.0287
452.449	0.0384
452.6513	0.0299
452.8537	0.0248
453.056	0.0362
453.2583	0.0294
453.4607	0.0268
453.663	0.0336
453.8652	0.0308
454.0675	0.0356
454.2697	0.0346
454.472	0.0243
454.6742	0.0385
454.8764	0.0295
455.0786	0.0246
455.2808	0.0259
455.4829	0.0322
455.6851	0.0323
455.8872	0.0208
456.0893	0.0273
456.2915	0.0236
456.4935	0.0353
456.6956	0.0229
456.8977	0.0234
457.0997	0.0279
457.3018	0.0275
457.5038	0.0309
457.7058	0.03
457.9078	0.0301
458.1098	0.0247
458.3117	0.0272
458.5137	0.0062
458.7156	0.0209
458.9175	0.0376
459.1194	0.0193
459.3213	0.0162
459.5232	0.0263
459.725	0.023
459.9269	0.0192
460.1287	0.0162
460.3305	0.0192
460.5323	0.0175
460.7341	0.0204
460.9359	0.0168
461.1376	0.0257
461.3394	0.0212
461.5411	0.0187
461.7428	0.0143
461.9445	0.0072
462.1462	0.015
462.3479	0.0133
462.5495	0.0192
462.7512	0.0236
462.9528	0.0193
463.1544	0.0108
463.356	0.0165
463.5576	0.021
463.7592	0.0116
463.9607	0.0149
464.1623	0.0116
464.3638	0.0177
464.5653	0.0084
464.7668	0.0231
464.9683	0.0131
465.1697	0.0126
465.3712	0.009
465.5726	0.0144
465.7741	0.0195
465.9755	0.0097
466.1769	0.0096
466.3782	0.0072
466.5796	0.0197
466.7809	0.015
466.9823	0.0141
467.1836	0.0062
467.3849	0.0095
467.5862	0.0035
467.7875	0.0049
467.9887	0.0186
468.19	0.0082
468.3912	0.0228
468.5924	0.0121
468.7936	0.0125
468.9948	0.009
469.196	0.0021
469.3972	0.0128
469.5983	0.0131
469.7994	0.0178
470.0006	0.0115
470.2017	0.0084
470.4027	0.0191
470.6038	0.0046
470.8049	0.0142
471.0059	0.0153
471.2069	0.0124
471.408	0.0185
471.6089	0.013
471.8099	0.0116
472.0109	0.0008
472.2119	0.0126
472.4128	0.007
472.6137	0.017
472.8146	0.0094
473.0155	0.0212
473.2164	0.0117
473.4173	0.0026
473.6181	0.0114
473.819	0.0113
474.0198	-0.0006
474.2206	-0.002
474.4214	0.0128
474.6222	-0.0035
474.8229	0.0093
475.0237	0.0107
475.2244	0.009
475.4251	0.004
475.6258	0.0023
475.8265	0.0065
476.0272	0.0046
476.2278	0.0079
476.4285	0.01
476.6291	0.0134
476.8297	0.0097
477.0303	0.0044
477.2309	0.01
477.4315	0.0093
477.632	-0.0012
477.8326	0.0068
478.0331	0.0091
478.2336	0.0017
478.4341	0.007
478.6346	0.0044
478.8351	0.0056
479.0355	0.0141
479.236	0.0185
479.4364	0.0051
479.6368	0.0102
479.8372	0.0078
480.0376	0.0066
480.2379	0.0029
480.4383	0.0138
480.6386	-0.0024
480.8389	0.0093
481.0392	0.0082
481.2395	0.0125
481.4398	-0.0003
481.6401	0.0067
481.8403	0.0047
482.0405	0.0086
482.2408	0.0087
482.441	0.007
482.6411	0.0048
482.8413	-0.0046
483.0415	0.0117
483.2416	0.0006
483.4417	0.0056
483.6419	0.0016
483.8419	0.0048
484.042	0.0057
484.2421	0.0017
484.4422	0.0009
484.6422	0.0087
484.8422	0.0015
485.0422	0.0075
485.2422	0.0016
485.4422	0.0053
485.6422	0.0039
485.8421	0.0041
486.042	0.0124
486.242	0.0032
486.4419	0.0053
486.6417	0.0034
486.8416	0.0017
487.0415	0.001
487.2413	-0.0056
487.4411	0.0051
487.641	0.0054
487.8408	0.0114
488.0405	0.0093
488.2403	0.0016
488.4401	0.0044
488.6398	0.0074
488.8395	0.0117
489.0392	0.0099
489.2389	0.012
489.4386	-0.0021
489.6383	0.0087
489.8379	-0.0012
490.0376	0.0082
490.2372	0.003
490.4368	0.0035
490.6364	-0.0022
490.836	0.0079
491.0355	0.0017
491.2351	0.0029
491.4346	0.0073
491.6341	-0.0018
491.8336	0.0082
492.0331	0.0043
492.2326	0.0101
492.432	0.003
492.6315	0.0129
492.8309	0.0109
493.0303	0.0041
493.2297	0.0074
493.4291	0.0055
493.6284	0.0107
493.8278	0.001
494.0271	0.0087
494.2264	0.003
494.4257	0.0101
494.625	0.0088
494.8243	0.0004
495.0236	0.0071
495.2228	0.0095
495.422	0.0068
495.6213	0.009
495.8205	0.0072
496.0196	0.0041
496.2188	0.0129
496.418	0.0026
496.6171	0.0064
496.8162	0.0093
497.0153	0.0132
497.2144	0.005
497.4135	0.0035
497.6126	0.0014
497.8116	0.0142
498.0107	0.011
498.2097	0.0113
498.4087	0.0063
498.6077	-0.0083
498.8067	0.0062
499.0056	0.0015
499.2046	0.0159
499.4035	0.002
499.6024	-0.0047
499.8013	0.0178
500.0002	0.0082
500.199	0.0101
500.3979	0.0045
500.5967	0.0016
500.7956	0.0041
500.9944	0.0019
501.1932	0.0104
501.3919	0.0149
501.5907	0.008
501.7895	0.0041
501.9882	0.0105
502.1869	0.011
502.3856	0.0105
502.5843	0.0098
502.783	0.0039
502.9816	0.0055
503.1803	0.0035
503.3789	0.0104
503.5775	0.0026
503.7761	0.0055
503.9747	0.0097
504.1732	-0.0028
504.3718	0.0186
504.5703	0.0107
504.7689	-0.0079
504.9674	-0.0011
505.1658	0.0027
505.3643	0.0036
505.5628	0.01
505.7612	0.0041
505.9597	-0.0042
506.1581	0.002
506.3565	0.0053
506.5549	0.0008
506.7532	-0.0018
506.9516	0.0097
507.1499	0.0076
507.3482	0.0079
507.5465	0.0086
507.7448	0.0073
507.9431	0.0056
508.1414	0.0106
508.3396	0.0104
508.5379	0.0028
508.7361	0.0093
508.9343	0.0116
509.1325	0.0113
509.3306	-0.0002
509.5288	-0.0057
509.7269	0.0108
509.9251	0.0189
510.1232	0.0078
510.3213	0.0021
510.5193	-0.0009
510.7174	-0.0003
510.9154	0.0116
511.1135	0.009
511.3115	0.0061
511.5095	0.0032
511.7075	-0.0019
511.9055	0.012
512.1034	0.0074
512.3014	0.0109
512.4993	0.008
512.6972	0.0001
512.8951	0.0091
513.093	0.009
513.2908	0.0199
513.4887	0.0041
513.6865	0.0094
513.8844	0.0123
514.0822	0.0065
514.2799	0.0027
514.4777	-0.0067
514.6755	0.0148
514.8732	0.0029
515.0709	0.0021
515.2687	0.008
515.4664	0.0187
515.664	0.0165
515.8617	0.0164
516.0594	0.0101
516.257	0.0131
516.4546	0.0164
516.6522	0.0081
516.8498	0.0033
517.0474	0.0193
517.2449	0.0022
517.4425	0.0091
517.64	0.006
517.8375	0.0118
518.035	0.0031
518.2325	0.0038
518.43	-0.0062
518.6274	0.0091
518.8249	0.0036
519.0223	0.0152
519.2197	-0.0023
519.4171	0.0001
519.6145	0.0167
519.8118	-0.0097
520.0092	-0.0129
520.2065	0.0191
520.4038	0.0016
520.6011	0.0115
520.7984	0.0087
520.9956	0.0096
521.1929	0.008
521.3901	0.0188
521.5874	0.0143
521.7846	0.0058
521.9818	-0.0028
522.1789	-0.0034
522.3761	0.0156
522.5732	0.0085
522.7704	0.0014
522.9675	-0.0023
523.1646	-0.0048
523.3617	0.0183
523.5587	0.006
523.7558	0.0116
523.9528	0.0185
524.1498	0.003
524.3468	0.0098
524.5438	0.0101
524.7408	0.0063
524.9378	0.0223
525.1347	0.0108
525.3316	0.0025
525.5285	0.0062
525.7254	0.0049
525.9223	0.0172
526.1192	0.0094
526.316	0.0125
526.5129	0.0072
526.7097	0.0056
526.9065	0.0086
527.1033	0.0051
527.3	0.0044
527.4968	0.0149
527.6935	0.0007
527.8903	0.0016
528.087	0.008
528.2837	0.0135
528.4804	-0.0012
528.677	0.0066
528.8737	0.0074
529.0703	-0.0005
529.2669	0.0097
529.4635	-0.0023
529.6601	-0.0047
529.8567	-0.0028
530.0532	0.0068
530.2498	0.005
530.4463	-0.0081
530.6428	0.0061
530.8393	0.0167
531.0358	0.0061
531.2322	0.0057
531.4287	0.006
531.6251	-0.0057
531.8215	0.006
532.0179	0.0098
532.2143	0.0048
532.4107	0.0188
532.607	0.0041
532.8034	-0.0019
532.9997	0.0025
533.196	0.0037
533.3923	0.0177
533.5886	0.0117
533.7848	0.0094
533.9811	0.0022
534.1773	-0.0023
534.3735	0.0052
534.5697	0.0004
534.7659	0.0032
534.9621	0.0066
535.1582	0.0029
535.3544	-0.0004
535.5505	0.0144
535.7466	0.0003
535.9427	0.0018
536.1387	-0.0047
536.3348	0.0122
536.5308	0.0008
536.7269	0.0101
536.9229	0.0057
537.1189	0.0093
537.3148	-0.0015
537.5108	-0.0005
537.7068	0.005
537.9027	-0.0019
538.0986	0.0091
538.2945	-0.0007
538.4904	-0.0026
538.6863	0.012
538.8821	0.0034
539.078	0.0081
539.2738	0.0052
539.4696	-0.0044
539.6654	0.0103
539.8611	0.0085
540.0569	0.0022
540.2526	0.0116
540.4484	0.0003
540.6441	0.0063
540.8398	0.0086
541.0355	0.0008
541.2311	0.0031
541.4268	0.009
541.6224	0.0127
541.818	0.0152
542.0136	0.015
542.2092	0.0061
542.4048	0.0107
542.6003	-0.0052
542.7959	0.0092
542.9914	0.0136
543.1869	0.0089
543.3824	0.0079
543.5779	0.015
543.7734	0.0123
543.9688	0.0106
544.1642	-0.0003
544.3596	0.0031
544.555	0.0015
544.7504	0.006
544.9458	0.013
545.1411	0.0048
545.3365	-0.0029
545.5318	0.0163
545.7271	0.0117
545.9224	0.0011
546.1177	0.0078
546.3129	0.0129
546.5081	0.0104
546.7034	0.0022
546.8986	0.0063
547.0938	0.0198
547.289	0.0048
547.4841	0.0099
547.6793	0.0013
547.8744	0.006
548.0695	0.0029
548.2646	0.0095
548.4597	0.0011
548.6548	0.0224
548.8498	0.0216
549.0448	0.0068
549.2399	0.0138
549.4349	0.0076
549.6298	0.0074
549.8248	-0.0022
550.0198	0.017
550.2147	0.0108
550.4096	0.0064
550.6045	0.0106
550.7994	0.0115
550.9943	0.0063
551.1892	-0.0104
551.384	0.0066
551.5788	0.0098
551.7737	0.0065
551.9685	0.0083
552.1632	0.0078
552.358	-0.007
552.5528	0.0081
552.7475	0.0031
552.9422	0.0071
553.1369	0.0036
553.3316	-0.0006
553.5263	0.0149
553.7209	0.0117
553.9156	0.0019
554.1102	0.0132
554.3048	-0.0024
554.4994	0.0069
554.694	0.0148
554.8885	0.0095
555.0831	0.0139
555.2776	0.015
555.4721	0.0142
555.6666	0.0019
555.8611	0.0021
556.0555	0.0074
556.25	0.0145
556.4444	0.0013
556.6388	0.0001
556.8332	0.0124
557.0276	-0.0018
557.222	-0.0016
557.4163	0.0016
557.6107	0.0001
557.805	-0.0018
557.9993	0.0053
558.1936	-0.0086
558.3879	0.0098
558.5821	0.0107
558.7764	0.001
558.9706	-0.0013
559.1648	0.015
559.359	-0.0009
559.5532	0.0022
559.7473	0.0014
559.9415	0.0076
560.1356	0.0107
560.3297	-0.0016
560.5238	0.0086
560.7179	0.0006
560.9119	0.0068
561.106	-0.0017
561.3	0.0042
561.494	0.0023
561.688	0.0045
561.882	0.0052
562.076	0.0047
562.2699	0.0139
562.4639	0.0186
562.6578	0.0109
562.8517	0.0099
563.0456	0.0116
563.2395	-0.0077
563.4333	0.004
563.6272	0.0072
563.821	-0.0047
564.0148	0.0072
564.2086	0.0064
564.4024	0.0069
564.5961	0.01
564.7899	0.0114
564.9836	0.0105
565.1773	0.0115
565.371	-0.0006
565.5647	0.0106
565.7584	0.0107
565.952	0.0034
566.1456	0.0083
566.3393	0.0071
566.5329	0.0066
566.7264	0.0028
566.92	0.0034
567.1136	0.0046
567.3071	-0.0024
567.5006	0.0092
567.6941	0.0018
567.8876	0.0067
568.0811	0.0235
568.2745	0.0032
568.468	0.0052
568.6614	0.007
568.8548	0.0035
569.0482	0.0096
569.2416	0.0075
569.4349	-0.0036
569.6283	0.0045
569.8216	0.0069
570.0149	0.006
570.2082	0.0164
570.4015	0.0064
570.5947	0.0066
570.788	0.0058
570.9812	-0.0002
571.1744	0.0069
571.3676	0.0066
571.5608	0.0055
571.754	0.0108
571.9471	0.0088
572.1402	0.0064
572.3333	0.0048
572.5264	0.007
572.7195	0.0026
572.9126	0.004
573.1057	0.0073
573.2987	0.0036
573.4917	0.0086
573.6847	0.004
573.8777	0.0091
574.0707	0.0045
574.2636	0.0062
574.4566	-0
574.6495	0.0023
574.8424	0.0071
575.0353	0.006
575.2281	0.0079
575.421	-0.0011
575.6138	0.0029
575.8067	0.0091
575.9995	0.0046
576.1923	0.0076
576.385	0.0054
576.5778	0.0101
576.7706	0.0047
576.9633	0.0057
577.156	-0.0041
577.3487	0.0074
577.5414	0.0029
577.734	0.0018
577.9267	0.0069
578.1193	0.0075
578.3119	0.0012
578.5045	0.0051
578.6971	0.003
578.8897	0.0026
579.0822	0.0072
579.2747	0.006
579.4673	0.005
579.6598	0.0069
579.8522	0.0057
580.0447	0.0045
580.2372	0.0156
580.4296	0.0134
580.622	0.0025
580.8144	0.0071
581.0068	0.0084
581.1992	0.0059
581.3915	0.0001
581.5839	0.0056
581.7762	0.0046
581.9685	0.0039
582.1608	0.0045
582.353	0.003
582.5453	0.0047
582.7375	0.0029
582.9298	0.002
583.122	0.0035
583.3142	0.0072
583.5063	0.0065
583.6985	-0.001
583.8906	0.002
584.0827	0.0036
584.2749	0.0024
584.4669	0.0035
584.659	0.0077
584.8511	0.0093
585.0431	0.0041
585.2352	0.0063
585.4272	0.0042
585.6192	0.0069
585.8111	0.0024
586.0031	0.004
586.195	0.0039
586.387	0.0019
586.5789	0.011
586.7708	0.0035
586.9627	0.0057
587.1545	0.005
587.3464	0.0078
587.5382	0.0061
587.73	0.0078
587.9218	0.002
588.1136	-0.0006
588.3053	0.0012
588.4971	-0.0005
588.6888	0.0045
588.8805	0.002
589.0722	0.0097
589.2639	0.0045
589.4556	0.0076
589.6472	0.0086
589.8389	0.0034
590.0305	0.0035
590.2221	0.0044
590.4137	0.0036
590.6052	0.002
590.7968	0.0056
590.9883	-0.0005
591.1798	0.0074
591.3713	0.002
591.5628	0.0044
591.7543	0.0035
591.9458	-0.0013
592.1372	0.0063
592.3286	0.0016
592.52	0.0079
592.7114	0.0071
592.9028	0.0083
593.0941	0.0037
593.2855	0.0032
593.4768	0.011
593.6681	0.0059
593.8594	0.0094
594.0506	0.0042
594.2419	0.0024
594.4331	0.0048
594.6244	-0.0018
594.8156	0.0039
595.0067	-0.0001
595.1979	-0.0002
595.3891	0.0061
595.5802	0.0156
595.7713	0.0064
595.9624	0.0066
596.1535	0.0058
596.3446	0.0025
596.5357	0.0102
596.7267	0.0073
596.9177	0.0008
597.1087	0.0089
597.2997	0.008
597.4907	0.0055
597.6817	0.0069
597.8726	0.0023
598.0635	-0.0002
598.2544	0.009
598.4453	0.0081
598.6362	0.0014
598.827	0.0062
599.0179	0.0056
599.2087	0.011
599.3995	0.0054
599.5903	0.0097
599.7811	0.0152
599.9718	0.0048
600.1626	-0.0011
600.3533	0.0044
600.544	0.0095
600.7347	0.006
600.9254	0.0072
601.116	0.0022
601.3067	0.0044
601.4973	0.0083
601.6879	0.0064
601.8785	0.0099
602.0691	0.002
602.2596	0.003
602.4502	0.0034
602.6407	0.0083
602.8312	0.0065
603.0217	0.005
603.2122	0.0066
603.4027	0.0004
603.5931	-0.0007
603.7835	0.0069
603.9739	0.0004
604.1643	0.0107
604.3547	0.0126
604.5451	0.0077
604.7354	0.0018
604.9257	0.0013
605.116	0.0013
605.3063	0.0045
605.4966	0.0066
605.6869	0.0112
605.8771	0.0085
606.0673	0.0036
606.2575	0.0032
606.4477	0.0121
606.6379	0.005
606.8281	0.0034
607.0182	0.0024
607.2083	0.0058
607.3985	0.0016
607.5885	0.0073
607.7786	0.0113
607.9687	0.0147
608.1587	0.0095
608.3488	0.0084
608.5388	-0.0009
608.7288	-0.0035
608.9187	0.0031
609.1087	0.0017
609.2986	0.0097
609.4886	-0.0061
609.6785	0.0079
609.8684	-0.0009
610.0582	-0
610.2481	-0.0026
610.4379	0.0129
610.6278	0.006
610.8176	0.0038
611.0074	0.0072
611.1971	-0.0023
611.3869	0.0131
611.5766	-0.0035
611.7664	0.0111
611.9561	0.0107
612.1458	0.0007
612.3354	0.0112
612.5251	0.0058
612.7147	0.012
612.9044	0.0045
613.094	0.0063
613.2836	0.0012
613.4731	0.0009
613.6627	0.0086
613.8522	0.0087
614.0417	0.0128
614.2313	0.0063
614.4207	0.0079
614.6102	0.0077
614.7997	0.0135
614.9891	0.0073
615.1785	-0.0006
615.3679	0.0049
615.5573	0.0088
615.7467	0.0013
615.9361	0.011
616.1254	0.0122
616.3147	0.0065
616.504	-0.0035
616.6933	0.0038
616.8826	-0.001
617.0718	0.0116
617.2611	0.0031
617.4503	0.0085
617.6395	0.0065
617.8287	0.0032
618.0179	0.0009
618.207	0.0151
618.3961	0.0011
618.5853	0.0011
618.7744	0.0097
618.9634	0.0126
619.1525	0.0128
619.3416	0.0018
619.5306	0.0104
619.7196	0.0094
619.9086	0.0032
620.0976	-0.0058
620.2866	0.0098
620.4755	-0.0014
620.6645	0.0079
620.8534	0.017
621.0423	-0.003
621.2312	-0
621.42	-0.0033
621.6089	0.0031
621.7977	0.0103
621.9865	0.0032
622.1753	-0.0023
622.3641	-0.0025
622.5529	0.0008
622.7416	0.0018
622.9303	0.0043
623.1191	0.0069
623.3078	0.0101
623.4964	0.0055
623.6851	-0.001
623.8737	0.0042
624.0624	-0.0183
624.251	0.0145
624.4396	0.0035
624.6282	0.018
624.8167	0.005
625.0053	0.0139
625.1938	0.0039
625.3823	0.0054
625.5708	-0.0032
625.7593	-0.0048
625.9477	0.012
626.1362	0.007
626.3246	0.0009
626.513	0.0069
626.7014	0.0098
626.8898	0.0111
627.0781	0.0015
627.2665	0.0124
627.4548	0.0014
627.6431	0.0092
627.8314	0.0148
628.0197	0.0165
628.2079	0.0072
628.3962	0.0192
628.5844	0.0143
628.7726	0.0081
628.9608	0.002
629.1489	0.0108
629.3371	-0.0045
629.5252	0.0115
629.7134	-0.0053
629.9015	0.0116
630.0895	-0.009
630.2776	0.012
630.4657	0.0107
630.6537	0.0136
630.8417	-0.0048
631.0297	0.0059
631.2177	0.0043
631.4057	0.0013
631.5936	-0.0054
631.7815	-0.0059
631.9695	0.0133
632.1574	0.009
632.3452	0.0104
632.5331	-0.0123
632.7209	0.0077
632.9088	0.0024
633.0966	0.0289
633.2844	-0.0008
633.4722	0.0061
633.6599	0.022
633.8477	0.014
634.0354	0.0125
634.2231	-0.0113
634.4108	0.0137
634.5985	0.0197
634.7861	0.0127
634.9738	0.004
635.1614	-0.0054
635.349	0.0066
635.5366	-0.0005
635.7242	0.0151
635.9117	0.0033
636.0993	0.009
636.2868	0.0038
636.4743	0.0027
636.6618	0.0016
636.8492	0.0194
637.0367	-0.0138
637.2241	0.0123
637.4115	0.0384
637.5989	0.0068
637.7863	0.0195
637.9737	0.0211
638.161	0.0144
638.3484	-0.0047
638.5357	-0.0019
638.723	0.0179
638.9103	-0.0211
639.0975	0.0014
639.2848	0.0187
639.472	0.0176
639.6592	-0.0049
639.8464	0.0051
640.0336	0.0091
640.2208	-0.0013
640.4079	0.0044
640.595	-0.0074
640.7821	0.0154
640.9692	0.0049
641.1563	0.0064
641.3434	0.0191
641.5304	0.0303
641.7174	0.0138
641.9044	0.0146
642.0914	0.0412
642.2784	0.024
642.4653	-0.0044
642.6523	0.0195
642.8392	0.0004
643.0261	0.009
643.213	0.0066
643.3999	0.0248
643.5867	0.0232
643.7735	0.0106
643.9604	0.0168
644.1472	0.0128
644.3339	-0.0006
644.5207	-0.0008
644.7075	-0.007
644.8942	0.0101
645.0809	-0.002
645.2676	-0.0057
645.4543	-0.0037
645.6409	0.0171
645.8276	0.0014
646.0142	0.0169
646.2008	0.0135
646.3874	-0.0097
646.574	0.0123
646.7605	0.009
646.9471	-0.0078
647.1336	-0.001
647.3201	0.0101
647.5066	-0.0005
647.6931	-0.0017
647.8795	0.002
648.0659	0.0078
648.2524	0.0074
648.4388	-0.0046
648.6252	0.0127
648.8115	0.0013
648.9979	0.014
649.1842	0.0125
649.3705	0.0027
649.5568	0.003
649.7431	0.0093
649.9294	0.0013
650.1156	-0.0088
650.3018	0.03
650.488	0.0228
650.6742	0.0271
650.8604	0.0237
651.0466	-0.0059
651.2327	0.0025
651.4188	0.0169
651.6049	0.005
651.791	0.0036
651.9771	0.0038
652.1632	0.0071
652.3492	0.0019
652.5352	0.0097
652.7212	-0.0057
652.9072	0.0102
653.0932	0.0023
653.2791	0.0028
653.465	0.0101
653.651	0.0041
653.8369	0.0095
654.0227	0.0063
654.2086	0.0101
654.3944	0.0095
654.5803	0.0017
654.7661	0.0079
654.9519	-0.0032
655.1377	0.0001
655.3234	0.0001
655.5092	0.0001
655.6949	0.0001
655.8806	0.0001
656.0663	0.0001
656.2519	0.0001
656.4376	0.0001
656.6232	0.0001
656.8088	0.0001
656.9945	0.0001
657.18	0.0001
657.3656	0.0001
657.5511	0.0001
657.7367	0.0001
657.9222	0.0001
658.1077	0.0001
658.2932	0.0001
658.4786	0.0001
658.6641	0.0001
658.8495	0.0001
659.0349	0.0001
659.2203	0.0001
659.4057	0.0001
659.591	0.1818
659.7764	0.028
659.9617	0.0172
660.147	0.0136
660.3323	-0.0011
660.5176	-0.0005
660.7028	-0.0023
660.888	-0.012
661.0733	0.0098
661.2585	-0.004
661.4436	0.0041
661.6288	0.0227
661.8139	0.0121
661.9991	-0.036
662.1842	-0.0046
662.3693	0.0119
662.5544	0.0128
662.7394	0.0127
662.9245	0.0224
663.1095	-0.0211
663.2945	0.0044
663.4795	0.0062
663.6644	0.0047
663.8494	0.0109
664.0343	0.0224
664.2193	-0.0095
664.4042	0.021
664.589	0.0038
664.7739	-0.0057
664.9587	-0.0028
665.1436	-0.0025
665.3284	0.0062
665.5132	-0.0287
665.698	0.0129
665.8827	0.0144
666.0675	-0.0076
666.2522	0.0224
666.4369	0.0138
666.6216	0.0019
666.8063	-0.0108
666.9909	0.006
667.1756	-0.017
667.3602	-0.0063
667.5448	0.0246
667.7294	0.0211
667.9139	-0.006
668.0985	-0.0015
668.283	0.0155
668.4675	0.0331
668.652	0.0336
668.8365	0.0092
669.0209	-0.0021
669.2054	0.0353
669.3898	0.0014
669.5742	0.0327
669.7586	0.0084
669.943	0.0069
670.1273	0.0037
670.3117	0.0214
670.496	0.0057
670.6803	-0.0033
670.8646	-0.0094
671.0488	0.0352
671.2331	-0.0033
671.4173	0.0223
671.6015	0.0234
671.7857	0.0016
671.9699	0.015
672.1541	-0.0002
672.3382	0.0001
672.5223	0.0059
672.7064	0.0083
672.8905	0.0014
673.0746	-0.0091
673.2587	0.0164
673.4427	0.0146
673.6267	0.0288
673.8107	0.006
673.9947	-0.0015
674.1787	0.0103
674.3626	0.0036
674.5465	-0.0039
674.7304	-0.0321
674.9143	-0.0245
675.0982	0.0143
675.2821	-0.0112
675.4659	-0.0174
675.6497	0.0108
675.8335	0.0309
676.0173	0.0079
676.2011	0.0241
676.3849	-0.0033
676.5686	0.0187
676.7523	-0.0054
676.936	-0.0042
677.1197	-0.0034
677.3034	0.0424
677.487	0.0039
677.6706	0.0132
677.8542	0.0022
678.0378	-0.0053
678.2214	0.0029
678.405	0.0147
678.5885	0.0227
678.772	0.0264
678.9555	0.0039
679.139	0.006
679.3225	0.0087
679.5059	-0.0046
679.6894	0.0049
679.8728	0.0082
680.0562	0.0173
680.2395	0.0063
680.4229	0.0122
680.6062	0.0084
680.7896	-0.0016
680.9729	0.0389
681.1562	0.0154
681.3394	-0.007
681.5227	0.006
681.7059	0.0109
681.8891	0.0131
682.0723	0.0064
682.2555	-0.0042
682.4387	0.021
682.6218	0.0296
682.805	0.0135
682.9881	0.0177
683.1712	0.0087
683.3542	0.0213
683.5373	0.0145
683.7203	0.0116
683.9034	-0.0134
684.0864	0.0144
684.2694	0.0136
684.4523	0.008
684.6353	0.002
684.8182	-0.0072
685.0011	0.0174
685.184	-0.0012
685.3669	0.0278
685.5498	-0.0125
685.7326	0.0058
685.9154	-0.0062
686.0982	0.0094
686.281	0.0012
686.4638	0.0118
686.6465	0.0108
686.8293	-0.0179
687.012	0.014
687.1947	-0.0026
687.3774	0.0068
687.56	-0.0006
687.7427	-0.0051
687.9253	-0.0195
688.1079	0.01
688.2905	0.0038
688.4731	0.0234
688.6556	0.003
688.8382	-0.0232
689.0207	0.0289
689.2032	0.0126
689.3857	-0.0077
689.5681	0.0077
689.7506	0.0232
689.933	-0.0081
690.1154	0.031
690.2978	0.0274
690.4802	0.0219
690.6626	0.0017
690.8449	0.0324
691.0272	-0.0073
691.2095	-0.0319
691.3918	-0.0053
691.5741	0.0065
691.7563	-0.0105
691.9386	0.0148
692.1208	0.0071
692.303	0.0001
692.4852	-0.0027
692.6673	0.0146
692.8495	0.0031
693.0316	-0.0003
693.2137	0.0167
693.3958	0.0137
693.5778	0.0002
693.7599	-0.0024
693.9419	-0.0063
694.1239	0.005
694.3059	0.0076
694.4879	0.0155
694.6699	-0.0088
694.8518	0.0272
695.0337	0.0284
695.2157	0.0149
695.3975	0.0299
695.5794	-0.0115
695.7613	-0.0088
695.9431	-0.0156
696.1249	0.0286
696.3067	-0.0043
696.4885	0.0312
696.6703	0.0109
696.852	-0.0014
697.0337	0.0246
697.2154	0.0065
697.3971	0.02
697.5788	0.0207
697.7605	-0.0056
697.9421	0.0174
698.1237	0.0036
698.3053	0.0079
698.4869	0.0069
698.6685	0.0032
698.85	0.0174
699.0315	-0.0045
699.213	0.0322
699.3945	-0.0012
699.576	0.0207
699.7575	0.0053
699.9389	0.0117
700.1203	-0.0092
700.3017	0.0066
700.4831	0.0407
700.6645	0.012
700.8458	0.0054
701.0271	0.023
701.2084	0.0129
701.3897	0.0085
701.571	-0.0402
701.7523	0.0167
701.9335	0.0221
702.1147	0.0194
702.2959	-0.0056
702.4771	0.0008
702.6583	0.0002
702.8394	-0.0137
703.0205	0.0088
703.2016	-0.0066
703.3827	-0.0205
703.5638	-0.0088
703.7449	0.0312
703.9259	0.0123
704.1069	-0.0162
704.2879	0.0026
704.4689	0.0065
704.6499	0.0479
704.8308	0.0345
705.0117	0.0249
705.1927	0.0028
705.3735	-0.0021
705.5544	0.029
705.7353	0.0109
705.9161	-0.009
706.0969	0.0202
706.2777	-0.0025
706.4585	-0.0072
706.6393	0.0282
706.82	0.0182
707.0007	0.0081
707.1815	-0.0079
707.3621	0.0393
707.5428	0.0181
707.7235	0.0051
707.9041	0.009
708.0847	0.0067
708.2653	0.03
708.4459	0.0083
708.6265	0.0063
708.807	0.0139
708.9875	0.017
709.168	-0.0054
709.3485	0.0148
709.529	0.0013
709.7095	-0.0133
709.8899	0.0035
710.0703	0.0173
710.2507	-0.0148
710.4311	-0.0024
710.6115	0.0257
710.7918	0.0325
710.9721	0.0132
711.1524	-0.0204
711.3327	-0.0235
711.513	-0.0069
711.6932	0.0161
711.8735	0.0442
712.0537	0.0047
712.2339	0.0138
712.4141	0.0422
712.5942	-0.0138
712.7744	0.0109
712.9545	0.0292
713.1346	0.0247
713.3147	0.0101
713.4947	-0.0031
713.6748	-0.0072
713.8548	0.0142
714.0348	0.028
714.2148	0.0158
714.3948	0.0135
714.5748	0.0149
714.7547	0.0195
714.9346	0.0252
715.1145	0.0154
715.2944	0.0134
715.4743	0.0296
715.6541	-0.0015
715.834	0.0148
716.0138	0.0262
716.1936	-0.0029
716.3733	-0.0164
716.5531	-0.0145
716.7328	0.0199
716.9126	0.0386
717.0923	-0.0452
717.2719	0.009
717.4516	0.005
717.6312	-0.0161
717.8109	0.0577
717.9905	0.0332
718.1701	0.008
718.3496	-0.0006
718.5292	-0.0113
718.7087	0.0074
718.8882	0.0129
719.0677	-0.0138
719.2472	-0.0157
719.4267	0.0223
719.6061	0.0191
719.7856	0.0339
719.965	-0.0106
720.1443	-0.0006
720.3237	0.0126
720.5031	-0.0032
720.6824	0.0129
720.8617	0.0229
721.041	0.0252
721.2203	0.0092
721.3995	0.0021
721.5788	-0.0095
721.758	-0.0014
721.9372	0.0096
722.1164	0.0094
722.2956	0.0096
722.4747	0.0136
722.6538	-0.0102
722.8329	0.03
723.012	0.0088
723.1911	-0.0006
723.3702	0.0459
723.5492	0.0063
723.7282	-0.0062
723.9072	0.0054
724.0862	0.0007
724.2652	0.0059
724.4441	-0.0185
724.623	0.0151
724.8019	0.0177
724.9808	-0.0172
725.1597	0.0193
725.3385	0.0146
725.5174	0.0063
725.6962	-0.0005
725.875	-0.0077
726.0538	0.0114
726.2325	0.0072
726.4112	-0.0068
726.59	-0.0123
726.7687	-0.0385
726.9474	0.0027
727.126	0.0196
727.3047	-0.0013
727.4833	-0.005
727.6619	-0.0149
727.8405	0.0068
728.0191	0.0182
728.1976	0.0088
728.3762	0.0159
728.5547	0.0031
728.7332	0.0188
728.9116	0.0136
729.0901	-0.0023
729.2686	-0.003
729.447	0.0059
729.6254	0.0304
729.8038	0.0162
729.9821	-0.0017
730.1605	0.027
730.3388	-0.0104
730.5171	0.0321
730.6954	-0.006
730.8737	0.0275
731.0519	-0.0047
731.2302	0.0111
731.4084	0.0057
731.5866	0.0057
731.7648	-0.0102
731.9429	0.0051
732.1211	0.0161
732.2992	0.0031
732.4773	-0.0074
732.6554	-0.0041
732.8335	0.0163
733.0115	0.024
733.1896	-0.0075
733.3676	0.0181
733.5456	0.0086
733.7235	0.0137
733.9015	0.0178
734.0794	-0.0053
734.2574	-0.0263
734.4353	0.0115
734.6131	-0.0076
734.791	0.0087
734.9689	-0.0116
735.1467	0.0043
735.3245	0.0085
735.5023	0.0246
735.68	-0.0039
735.8578	0.0113
736.0355	0.0093
736.2132	0.0266
736.3909	0.0147
736.5686	0.0128
736.7463	-0.019
736.9239	0.0168
737.1015	0.0079
737.2791	0.0075
737.4567	0.0259
737.6343	0.0195
737.8118	0.0098
737.9894	0.0013
738.1669	-0.0048
738.3444	0.0301
738.5218	-0.0045
738.6993	-0.0001
738.8767	0.0115
739.0541	-0.0119
739.2315	-0.0033
739.4089	0.0249
739.5863	0.0027
739.7636	0.0107
739.9409	0.0068
740.1182	0.0305
740.2955	0.0296
740.4728	-0.0134
740.65	-0.0193
740.8272	0.0431
741.0044	0.0046
741.1816	0.0168
741.3588	-0.031
741.5359	0.0079
741.7131	0.0239
741.8902	-0.0128
742.0673	-0.0369
742.2444	0.0232
742.4214	0.0255
742.5985	-0.0088
742.7755	0.0029
742.9525	-0.0308
743.1295	0.0064
743.3064	-0.0041
743.4834	-0.0012
743.6603	0.0525
743.8372	-0.0298
744.0141	0.0579
744.191	0.017
744.3678	-0.0381
744.5446	0.0062
744.7215	-0.0077
744.8982	0.0077
745.075	0.061
745.2518	0.0183
745.4285	0.02
745.6052	-0.0099
745.7819	0.0233
745.9586	-0.0002
746.1353	-0.0058
746.3119	-0.0011
746.4885	0.0317
746.6651	0.0169
746.8417	-0.0023
747.0183	0.0489
747.1948	0.0139
747.3714	-0.0053
747.5479	0.0152
747.7244	-0.0169
747.9008	0.0156
748.0773	0.0322
748.2537	0.0481
748.4301	0.0534
748.6065	-0.017
748.7829	-0.0186
748.9593	-0.0032
749.1356	-0.0049
749.3119	-0.0058
749.4882	0.0173
749.6645	-0.012
749.8408	0.0142
750.017	0.0282
750.1933	-0.0283
750.3695	0.0331
750.5457	0.0119
750.7218	-0.0083
750.898	-0.0071
751.0741	-0.0046
751.2502	0.0197
751.4263	0.0037
751.6024	0.0127
751.7784	0.0112
751.9545	0.0088
752.1305	0.0098
752.3065	0.0026
752.4825	0.0194
752.6584	-0.0136
752.8344	0.0024
753.0103	-0.0222
753.1862	0.0101
753.3621	0.0088
753.5379	-0.0084
753.7138	0.0094
753.8896	0.0345
754.0654	-0.0288
754.2412	0.0211
754.417	0.0297
754.5927	0.0247
754.7685	0.0095
754.9442	0.0178
755.1199	0.0016
755.2956	-0.0095
755.4712	-0.0037
755.6469	0.0045
755.8225	0.0058
755.9981	0.0177
756.1736	0.0119
756.3492	0.0011
756.5248	0.0328
756.7003	-0.0007
756.8758	0.0033
757.0513	0.0044
757.2267	0.0135
757.4022	-0.0034
757.5776	0.0057
757.753	0.0284
757.9284	0.0089
758.1038	0.0195
758.2791	0.0208
758.4545	-0.0056
758.6298	0.0023
758.8051	0.0139
758.9803	0.01
759.1556	-0.0017
759.3308	-0.007
759.506	0.0072
759.6812	-0.0052
759.8564	0.0056
760.0316	0.0001
760.2067	0.0254
760.3819	-0.0003
760.557	-0.0051
760.732	0.0017
760.9071	0.0164
761.0821	-0.0144
761.2572	0.022
761.4322	-0.0007
761.6072	-0.0065
761.7821	-0.0352
761.9571	0.014
762.132	0.0153
762.3069	0.0132
762.4818	0.0165
762.6567	0.0094
762.8316	0.024
763.0064	0.0179
763.1812	0.0211
763.356	0.0027
763.5308	0.0329
763.7055	-0.0163
763.8803	-0.0021
764.055	0.004
764.2297	0.0068
764.4044	-0.0036
764.579	-0.0047
764.7537	0.0082
764.9283	-0.0071
765.1029	-0.0074
765.2775	0.0051
765.4521	0.0104
765.6266	0.0177
765.8011	0.0171
765.9756	0.0343
766.1501	0.0045
766.3246	0.0188
766.4991	0.0189
766.6735	0.0637
766.8479	-0.0029
767.0223	0.0314
767.1967	0.0072
767.371	0.0329
767.5454	0.0003
767.7197	0.0424
767.894	0.0019
768.0683	0.0231
768.2425	-0.0064
768.4168	0.0009
768.591	0.0152
768.7652	0.0124
768.9394	-0.0075
769.1135	-0.018
769.2877	0.0015
769.4618	0.0223
769.6359	0.0028
769.81	0.0402
769.984	-0.0192
770.1581	0.0166
770.3321	0.0174
770.5061	-0.0065
770.6801	0.0117
770.8541	0.0146
771.028	0.0412
771.202	0.0349
771.3759	0.0029
771.5498	-0.0174
771.7236	0.0052
771.8975	0.0179
772.0713	0.0316
772.2451	0.0152
772.4189	0.0161
772.5927	-0.0338
772.7665	0.0192
772.9402	0.0212
773.1139	0.0098
773.2876	-0.0062
773.4613	0.0229
773.635	0.0252
773.8086	0.0164
773.9822	0.0231
774.1558	0.0503
774.3294	0.0114
774.503	0.0342
774.6765	0.0285
774.8501	-0.0091
775.0236	0.0228
775.1971	0.0208
775.3705	-0.0088
775.544	-0.0126
775.7174	-0.0084
775.8908	0.012
776.0642	0.0285
776.2376	-0.0012
776.4109	-0.0038
776.5843	0.0067
776.7576	-0.0234
776.9309	-0.0061
777.1041	-0.0228
777.2774	-0.0345
777.4506	0.0135
777.6238	-0.003
777.797	0.0089
777.9702	-0.0201
778.1434	0.0078
778.3165	0.0053
778.4896	-0.0311
778.6627	-0.009
778.8358	-0.0255
779.0089	-0.0287
779.1819	0.042
779.3549	0.0284
779.5279	-0.0206
779.7009	0.0437
779.8739	0.0493
780.0468	0.017
780.2197	0.0208
780.3926	-0.0213
780.5655	0.0319
780.7384	-0.0053
780.9112	0.0146
781.0841	0.0111
781.2569	0.0384
781.4297	0.0053
781.6024	0.0076
781.7752	0.0321
781.9479	0.0606
782.1206	-0.0122
782.2933	0.0224
782.466	0.0278
782.6386	-0.0008
782.8113	0.0169
782.9839	0.0123
783.1565	0.0413
783.329	0.0127
783.5016	0.0196
783.6741	-0.0057
783.8466	0.0268
784.0191	0.0052
784.1916	-0.0537
784.3641	-0.0131
784.5365	0.0183
784.7089	-0.0254
784.8813	0.0464
785.0537	0.0059
785.2261	-0.0191
785.3984	0.0209
785.5707	-0.0141
785.743	0.0173
785.9153	-0.0364
786.0876	-0.024
786.2598	-0.0243
786.432	0.0019
786.6042	0.0148
786.7764	0.0217
786.9486	-0.0126
787.1207	0.0384
787.2928	0.0436
787.4649	-0.0314
787.637	0.0227
787.8091	0.0319
787.9811	0.0425
788.1532	0.0061
788.3252	0.0133
788.4972	0.0341
788.6691	-0.0066
788.8411	0.0245
789.013	0.0137
789.1849	-0.0115
789.3568	0.0068
789.5287	0.0624
789.7005	-0.0225
789.8723	-0.0258
790.0442	-0.0102
790.2159	-0.0056
790.3877	0.0945
790.5595	0.0827
790.7312	-0.0423
790.9029	0.0078
791.0746	0.0575
791.2463	-0.0601
791.4179	0.0092
791.5896	-0.0362
791.7612	0.0492
791.9328	-0.0152
792.1044	0.0265
792.2759	0.0032
792.4474	0.0125
792.619	0.0041
792.7905	0.0724
792.9619	0.043
793.1334	0.0679
793.3048	0.0586
793.4762	0.0159
793.6476	-0.0158
793.819	-0.0069
793.9904	-0.0238
794.1617	-0.0366
794.333	0.0175
794.5043	0.0257
794.6756	0.029
794.8469	0.0248
795.0181	-0.0294
795.1893	0.0484
795.3605	0.0268
795.5317	-0.0011
795.7029	-0.012
795.874	0.0071
796.0452	-0.0035
796.2163	0.0624
796.3873	0.1145
796.5584	0.1101
796.7294	0.0084
796.9005	0.0473
797.0715	-0.0007
797.2425	0.1071
797.4134	0.0726
797.5844	0.0424
797.7553	-0.0872
797.9262	0.0572
798.0971	0.1221
798.2679	-0.0017
798.4388	0.0359
798.6096	-0.0308
798.7804	0.0336
798.9512	0.0841
799.122	-0.0031
799.2927	0.1155
799.4635	-0.0389
799.6342	-0.0387
799.8049	0.0342
799.9755	0.0676
800.1462	0.0119
800.3168	0.069
800.4874	-0.0489
800.658	0.0253
800.8286	0.0314
800.9991	0.0404
801.1696	-0.0021
801.3402	-0.0166
801.5106	0.0012
801.6811	-0.0147
801.8516	0.1483
802.022	-0.0082
802.1924	-0.0769
802.3628	-0.0181
802.5332	0.0348
802.7035	0.0154
802.8739	-0.045
803.0442	0.0382
803.2145	0.0297
803.3847	0.0072
803.555	0.0126
803.7252	-0.0429
803.8954	-0.0893
804.0656	-0.089
804.2358	-0.0133
804.4059	-0.0305
804.5761	-0.0193
804.7462	0.0723
804.9163	-0.01
805.0864	-0.026
805.2564	0.0011
805.4264	0.0335
805.5965	0.1002
805.7665	0.0244
805.9364	0.0434
806.1064	-0.0352
806.2763	0.0149
806.4462	0.0393
806.6161	0.0343
806.786	-0.0083
806.9559	-0.0014
807.1257	0.0511
807.2955	0.0383
807.4653	0.058
807.6351	0.1427
807.8048	0.08
807.9746	0.0737
808.1443	0.0117
808.314	0.0463
808.4837	0.0291
808.6533	0.0369
808.8229	-0.0033
808.9926	0.026
809.1622	-0.0086
809.3317	-0.0273
809.5013	-0.0256
809.6708	0.006
809.8403	0.0225
810.0098	0.001
810.1793	0.014
810.3488	-0.0844
810.5182	0.0779
810.6876	-0.0104
810.857	0.0631
811.0264	-0.0159
811.1958	0.1067
811.3651	0.0513
811.5344	0.1662
811.7037	0.0862
811.873	0.0962
812.0422	0.0384
812.2115	-0.0345
812.3807	-0.1902
812.5499	-0.079
812.7191	-0.0877
812.8882	-0.0624
813.0574	-0.0706
813.2265	0.1311
813.3956	0.1289
813.5646	0.127
813.7337	0.0327
813.9027	-0.013
814.0718	0.0391
814.2407	0.0859
814.4097	0.1068
814.5787	0.103
814.7476	0.0584
814.9165	0.0576
815.0854	-0.0456
815.2543	0.0255
815.4232	0.0644
815.592	0.2158
815.7608	-0.1018
815.9296	-0.0436
816.0984	0.1188
816.2671	-0.2357
816.4359	0.0331
816.6046	-0.0103
816.7733	0.0305
816.942	-0.0219
817.1106	0.1075
817.2793	0.0442
817.4479	0.0158
817.6165	0.0281
817.785	0.1323
817.9536	-0.035
818.1221	0.0563
818.2906	-0.128
818.4591	-0.0704
818.6276	-0.001
818.7961	0.0823
818.9645	0.0197
819.1329	0.2993
819.3013	-0.0768
819.4697	0.2381
819.638	0.1996
819.8064	-0.0298
819.9747	-0.0014
820.143	-0.0016
820.3113	0.1289
820.4795	0.0416
820.6477	0.0083
820.816	0.0887
820.9842	0.1079
821.1523	0.1526
821.3205	0.0198
821.4886	0.0012
821.6567	-0.0334
821.8248	0.0771
821.9929	-0.1071
822.1609	-0.1451
822.329	0.0657
822.497	0.1977
822.665	0.0498
822.833	0.0501
823.0009	0.0021
823.1688	0.0473
823.3367	-0.1381
823.5046	0.0958
823.6725	0.0291
823.8404	0.0225
824.0082	-0.0724
824.176	-0.0838
824.3438	0.2021
824.5116	0.0869
824.6793	-0.03
824.847	0.4924
825.0147	0.5786
825.1824	0.0376
825.3501	0.0132
825.5177	-0.0629
825.6854	-0.1381
825.853	-0.0599
826.0206	-0.0015
826.1881	0.1332
826.3557	0.024
826.5232	0.1196
826.6907	0.0409
826.8582	0.0574
827.0257	0.1494
827.1931	-0.0173
827.3605	-0.1674
827.528	0.0588
827.6953	-0.2043
827.8627	-0.1433
828.03	0.1028
828.1974	-0.021
828.3647	0.0627
828.532	-0.041
828.6992	0.141
828.8665	-0.2234
829.0337	0.0176
829.2009	-0.0497
829.3681	-0.0549
829.5352	-0.1906
829.7024	0.0159
829.8695	0.086
830.0366	0.1356
830.2037	0.1012
830.3707	0.1523
830.5378	0.0145
830.7048	-0.1841
830.8718	0.0731
831.0388	0.0603
831.2057	0.0057
831.3727	-0.2924
831.5396	0.0384
831.7065	-0.4424
831.8734	0.5001
832.0402	0.3493
832.2071	-0
832.3739	-0.3171
832.5407	-2.0974
832.7075	-0.3283
832.8742	0.4818
833.041	0.2941
833.2077	0.4196
833.3744	-0.0551
833.541	0.1387
833.7077	-0.0208
833.8743	0.2159
834.0409	0.0644
834.2075	0.123
834.3741	-0.2358
834.5407	-0.0214
834.7072	0.1784
834.8737	0.1528
835.0402	0.7265
835.2067	0.237
835.3731	0.037
835.5395	-0.0664
835.706	-0.1266
835.8723	0.0035
836.0387	0.1021
836.2051	-0.0192
836.3714	-0.1362
836.5377	1.2599
836.704	0.1415
836.8703	0.2832
837.0365	-0.8525
837.2027	-0.0954
837.3689	0.3761
837.5351	0.2524
837.7013	-0.0139
837.8674	0.0436
838.0335	0.1897
838.1997	0.0979
838.3657	0.0562
838.5318	-0.2619
838.6978	-0
838.8639	-0.5438
839.0299	0.2123
839.1958	0.1563
839.3618	-0
839.5277	-0.0559
839.6937	-0.0887
839.8596	-0.2725
840.0254	0.0404
840.1913	0.0684
840.3571	0.384
840.523	-0
840.6888	0.0036
840.8545	-0.2511
841.0203	0.4202
841.186	0.105
841.3517	0.0055
841.5174	0.1107
841.6831	0.4084
841.8488	0.4115
842.0144	-0.157
842.18	0.147
842.3456	-0.3916
842.5112	-0
842.6767	1.0834
842.8422	0.2776
843.0077	0.9003
843.1732	-0.3097
843.3387	-0
843.5042	-0
843.6696	-0
843.835	-0.2015
844.0004	-0.1561
844.1657	-0
844.3311	-0
844.4964	-0
844.6617	0.2188
844.827	-0
844.9923	1.9522
845.1575	-0.208
845.3227	0.2202
845.4879	-0.1534
845.6531	0.1093
845.8183	0.3552
845.9834	-0
846.1485	0.1228
846.3136	0.0435
846.4787	0.5804
846.6438	0.2342
846.8088	-0
846.9738	-0
847.1388	0.2986
847.3038	0.559
847.4687	-0
847.6337	-0.4667
847.7986	1.4855
847.9635	-0.0149
848.1284	-0
848.2932	0.631
848.458	-0
848.6228	0.3328
848.7876	-0
848.9524	1.133
849.1172	-1.5958
849.2819	-0
849.4466	-0
849.6113	0.729
849.7759	0.5044
849.9406	0.2243
850.1052	-1.3056
850.2698	-0
850.4344	-0
850.599	0.4995
850.7635	0.1019
850.928	-0
851.0925	0.4947
851.257	0.7348
851.4215	-0
851.5859	-0.0165
851.7503	0.1712
851.9147	-0
852.0791	-0.0036
852.2434	0.8691
852.4078	-0.1342
852.5721	0.5313
852.7364	0.5775
852.9007	-0.1372
853.0649	-0.3536
853.2291	-0.1891
853.3934	-0.5445
853.5575	-0.0878
853.7217	0.3984
853.8859	-0.6088
854.05	-0.0973
854.2141	0.2311
854.3782	-0
854.5423	-0.2864
854.7063	0.413
854.8703	0.1475
855.0343	-0.1652
855.1983	-0.1262
855.3623	-0.0357
855.5262	-0
855.6901	0.4234
855.854	0.5051
856.0179	0.0789
856.1818	0.0259
856.3456	1.3193
856.5094	-0
856.6732	-0
856.837	-1.1193
857.0008	0.9337
857.1645	-0.1852
857.3282	-0.4159
857.4919	0.7449
857.6556	0.069
857.8192	0.2753
857.9828	0.1093
858.1465	-0.0649
858.31	-0
858.4736	-0.7147
858.6372	0.424
858.8007	0.0617
858.9642	0.6232
859.1277	1.0285
859.2911	-0.0861
859.4546	-1.5843
859.618	0.4503
859.7814	-0.1268
859.9448	-0
860.1081	0.1276
860.2715	-1.5958
860.4348	0.1837
860.5981	-0
860.7614	-0
860.9246	-0.2868
861.0879	-0.0368
861.2511	-0.1331
861.4143	-0
861.5774	-0.0718
861.7406	-0
861.9037	-0.6465
862.0668	-0
862.2299	-0.0063
862.393	-0
862.556	-0.2979
862.7191	-0
862.8821	0.2434
863.0451	0.0836
863.208	-0.4054
863.371	-0.6461
863.5339	0.3258
863.6968	-0
863.8597	-0
864.0225	-0
864.1854	-0
864.3482	-0.0649
864.511	-0.3171
864.6737	-0
864.8365	0.1639
864.9992	-0
865.1619	-0.1498
865.3246	-2.1998
865.4873	-0
865.65	0.2358
865.8126	0.5588
865.9752	-0.2326
866.1378	-0.0034
866.3004	-0.2921
866.4629	-1.8361
866.6254	0.1096
866.7879	-0.205
866.9504	-0.5951
867.1129	0.3857
867.2753	-0.1878
867.4377	-0.2998
867.6001	-0.1888
867.7625	0.1504
867.9249	0.3538
868.0872	0.1339
868.2495	-0
868.4118	-0
868.5741	0.0886
868.7363	-0
868.8986	-0.6659
869.0608	-0
869.223	0.133
869.3851	-0
869.5473	0.4999
869.7094	-0.2522
869.8715	-0.6498
870.0336	-0.0077
870.1957	-0.5078
870.3577	0.4439
870.5197	-0.3581
870.6817	-0.9597
870.8437	-0
871.0057	-0
871.1676	0.6463
871.3295	-0
871.4914	-1.5263
871.6533	0.1734
871.8151	0.4593
871.977	-0.3259
872.1388	0.8148
872.3006	-0.1043
872.4623	0.0403
872.6241	14.2511
872.7858	-0.2221
872.9475	0.3225
873.1092	-0.0343
873.2709	0.4182
873.4325	-1.7254
873.5941	-0.2663
873.7557	-0
873.9173	0.0086
874.0789	0.3528
874.2404	-0
874.4019	0.0537
874.5634	-0
874.7249	0.1093
874.8863	-0.4025
875.0478	-0.2194
875.2092	1.6608
875.3706	0.3804
875.5319	-0
875.6933	0.1633
875.8546	0.6867
876.0159	0.2212
876.1772	13.6351
876.3385	1.2502
876.4997	0.0081
876.6609	0.2934
876.8221	0.58
876.9833	0.4475
877.1445	0.1516
877.3056	-1.035
877.4667	-0.7886
877.6278	-0
877.7889	-0.2558
877.9499	-0
878.111	-0.6874
878.272	-0
878.433	0.0109
878.5939	-0.2626
878.7549	-0.1231
878.9158	0.5526
879.0767	0.6706
879.2376	-0
879.3984	-0
879.5593	0.514
879.7201	-1.2341
879.8809	-0
880.0417	-0.0544
880.2024	0.5014
880.3632	-0.1123
880.5239	0.1192
880.6846	-0
880.8452	-0.0671
881.0059	0.1112
881.1665	0.2836
881.3271	0.9288
881.4877	14.3489
881.6483	-0
881.8088	-0
881.9693	-0
882.1298	-0
882.2903	-0
