Data from D4ACN5uM440nmA_Absorbance_13-50-25-132.txt Node
Date: Fri Feb 21 13:50:25 GMT 2025
User: LASERRRRR
Spectrometer: FLMT03099
Trigger mode: 0
Integration Time (sec): 1.500000E-2
Scans to average: 1
Electric dark correction enabled: true
Nonlinearity correction enabled: false
Boxcar width: 0
XAxis mode: Wavelengths
Number of Pixels in Spectrum: 3648
>>>>>Begin Spectral Data<<<<<
179.3399	-0
179.5586	-0
179.7771	-0
179.9957	0.3317
180.2143	-0
180.4329	0.165
180.6514	-0
180.8699	-0
181.0885	-0
181.307	0.3857
181.5255	-0.0613
181.744	-0
181.9625	-0
182.181	0.1833
182.3994	-0.2122
182.6179	-0.657
182.8363	-0
183.0547	-0
183.2732	0.0931
183.4916	0.4173
183.71	0.3699
183.9284	0.2446
184.1467	0.0985
184.3651	0.0813
184.5835	0.3843
184.8018	0.4918
185.0201	0.1181
185.2385	0.2952
185.4568	0.0566
185.6751	0.2652
185.8934	0.2601
186.1117	-0.1004
186.3299	0.3354
186.5482	0.2303
186.7664	0.1218
186.9847	0.1701
187.2029	0.0907
187.4211	0.2373
187.6393	0.1215
187.8575	0.1901
188.0757	0.5828
188.2939	0.0636
188.512	0.3641
188.7302	0.3013
188.9483	0.1173
189.1665	0.8055
189.3846	0.3978
189.6027	0.0741
189.8208	0.1372
190.0389	0.2849
190.257	0.2557
190.475	0.2644
190.6931	0.0225
190.9111	0.1055
191.1292	0.2494
191.3472	0.1897
191.5652	0.2081
191.7832	0.219
192.0012	0.1181
192.2192	0.1278
192.4371	0.3413
192.6551	0.3064
192.873	0.1041
193.091	0.1117
193.3089	0.0766
193.5268	0.2302
193.7447	0.1756
193.9626	0.2275
194.1805	0.2212
194.3984	0.1965
194.6162	0.1818
194.8341	0.3314
195.0519	0.2627
195.2697	0.2424
195.4875	0.3582
195.7054	0.3179
195.9231	0.3179
196.1409	0.3747
196.3587	0.4084
196.5765	0.2962
196.7942	0.3996
197.012	0.3836
197.2297	0.3298
197.4474	0.4286
197.6651	0.2576
197.8828	0.3506
198.1005	0.4398
198.3182	0.3859
198.5358	0.4135
198.7535	0.3583
198.9711	0.3764
199.1888	0.4345
199.4064	0.3654
199.624	0.387
199.8416	0.3741
200.0592	0.394
200.2767	0.4185
200.4943	0.4389
200.7119	0.4314
200.9294	0.4503
201.1469	0.4518
201.3645	0.4162
201.582	0.403
201.7995	0.4063
202.017	0.4071
202.2344	0.3899
202.4519	0.4387
202.6694	0.4145
202.8868	0.3743
203.1042	0.381
203.3217	0.4019
203.5391	0.4211
203.7565	0.3926
203.9739	0.3579
204.1913	0.3543
204.4086	0.3724
204.626	0.3651
204.8433	0.3944
205.0607	0.3576
205.278	0.3714
205.4953	0.3519
205.7126	0.3591
205.9299	0.345
206.1472	0.3579
206.3644	0.37
206.5817	0.3232
206.7989	0.3254
207.0162	0.3421
207.2334	0.3187
207.4506	0.3193
207.6678	0.3234
207.885	0.3019
208.1022	0.2854
208.3194	0.3131
208.5365	0.3034
208.7537	0.2963
208.9708	0.2863
209.1879	0.3111
209.405	0.2843
209.6222	0.2626
209.8392	0.3228
210.0563	0.2777
210.2734	0.2715
210.4905	0.287
210.7075	0.2488
210.9245	0.2593
211.1416	0.2694
211.3586	0.2884
211.5756	0.2447
211.7926	0.2767
212.0096	0.2778
212.2265	0.2673
212.4435	0.2703
212.6604	0.2546
212.8774	0.275
213.0943	0.2699
213.3112	0.273
213.5281	0.2578
213.745	0.232
213.9619	0.2394
214.1788	0.2789
214.3956	0.2506
214.6125	0.2786
214.8293	0.2482
215.0461	0.2413
215.2629	0.2615
215.4798	0.2465
215.6965	0.2465
215.9133	0.2567
216.1301	0.2546
216.3469	0.2536
216.5636	0.262
216.7803	0.2441
216.9971	0.2623
217.2138	0.2569
217.4305	0.2474
217.6472	0.237
217.8639	0.251
218.0805	0.2568
218.2972	0.2341
218.5138	0.2547
218.7305	0.2723
218.9471	0.2393
219.1637	0.2722
219.3803	0.2548
219.5969	0.2565
219.8135	0.2627
220.0301	0.2684
220.2466	0.2591
220.4632	0.2609
220.6797	0.2543
220.8962	0.266
221.1127	0.2742
221.3292	0.2682
221.5457	0.2791
221.7622	0.2729
221.9787	0.2989
222.1951	0.2723
222.4116	0.2849
222.628	0.2892
222.8444	0.2858
223.0608	0.2933
223.2772	0.2873
223.4936	0.2881
223.71	0.2856
223.9264	0.2896
224.1427	0.3001
224.3591	0.2827
224.5754	0.2972
224.7917	0.284
225.008	0.2914
225.2243	0.3101
225.4406	0.2885
225.6569	0.3046
225.8732	0.3051
226.0894	0.3166
226.3057	0.3164
226.5219	0.3201
226.7381	0.3181
226.9543	0.3177
227.1705	0.3102
227.3867	0.324
227.6029	0.332
227.8191	0.3416
228.0352	0.3363
228.2513	0.3507
228.4675	0.3514
228.6836	0.3493
228.8997	0.3393
229.1158	0.3662
229.3319	0.3509
229.548	0.3609
229.764	0.359
229.9801	0.3733
230.1961	0.3682
230.4121	0.3654
230.6282	0.3844
230.8442	0.386
231.0602	0.3875
231.2761	0.3807
231.4921	0.3929
231.7081	0.3908
231.924	0.4016
232.14	0.3965
232.3559	0.394
232.5718	0.4241
232.7877	0.4054
233.0036	0.4077
233.2195	0.4051
233.4353	0.4115
233.6512	0.4176
233.867	0.4249
234.0829	0.4215
234.2987	0.4277
234.5145	0.4308
234.7303	0.4314
234.9461	0.4387
235.1619	0.4362
235.3776	0.442
235.5934	0.4401
235.8091	0.4348
236.0249	0.4419
236.2406	0.4451
236.4563	0.4393
236.672	0.4505
236.8877	0.4484
237.1034	0.4504
237.319	0.449
237.5347	0.4495
237.7503	0.4596
237.966	0.4648
238.1816	0.4465
238.3972	0.4628
238.6128	0.4718
238.8284	0.4575
239.0439	0.464
239.2595	0.4564
239.475	0.4485
239.6906	0.4486
239.9061	0.4617
240.1216	0.4578
240.3371	0.4542
240.5526	0.4553
240.7681	0.4613
240.9836	0.461
241.199	0.4495
241.4145	0.4488
241.6299	0.4471
241.8453	0.4389
242.0607	0.4352
242.2761	0.4389
242.4915	0.4237
242.7069	0.4159
242.9223	0.4206
243.1376	0.4079
243.353	0.4021
243.5683	0.4043
243.7836	0.389
243.9989	0.3821
244.2142	0.3779
244.4295	0.3706
244.6448	0.3623
244.86	0.3526
245.0753	0.3519
245.2905	0.3418
245.5057	0.3344
245.721	0.3366
245.9362	0.3292
246.1514	0.3152
246.3665	0.3072
246.5817	0.3047
246.7969	0.2919
247.012	0.2888
247.2271	0.2918
247.4423	0.2801
247.6574	0.2868
247.8725	0.2706
248.0876	0.2671
248.3026	0.2632
248.5177	0.2607
248.7328	0.2498
248.9478	0.252
249.1628	0.2487
249.3779	0.2455
249.5929	0.2383
249.8079	0.236
250.0228	0.2274
250.2378	0.2343
250.4528	0.2286
250.6677	0.2252
250.8827	0.2161
251.0976	0.2159
251.3125	0.2174
251.5274	0.2087
251.7423	0.2081
251.9572	0.2096
252.172	0.2106
252.3869	0.2065
252.6017	0.2012
252.8166	0.2025
253.0314	0.1918
253.2462	0.1961
253.461	0.1925
253.6758	0.1968
253.8906	0.1927
254.1053	0.1971
254.3201	0.1915
254.5348	0.1867
254.7496	0.1794
254.9643	0.1958
255.179	0.1818
255.3937	0.1897
255.6083	0.1947
255.823	0.1913
256.0377	0.1796
256.2523	0.1866
256.467	0.1841
256.6816	0.1848
256.8962	0.1792
257.1108	0.1841
257.3254	0.1799
257.54	0.1802
257.7545	0.1826
257.9691	0.1862
258.1836	0.1779
258.3981	0.1748
258.6127	0.1749
258.8272	0.1854
259.0417	0.1728
259.2561	0.1774
259.4706	0.1817
259.6851	0.1799
259.8995	0.1725
260.114	0.1811
260.3284	0.1756
260.5428	0.1763
260.7572	0.1748
260.9716	0.18
261.186	0.1748
261.4003	0.1791
261.6147	0.1789
261.829	0.1815
262.0433	0.1791
262.2577	0.178
262.472	0.1764
262.6863	0.1859
262.9005	0.1807
263.1148	0.1699
263.3291	0.1803
263.5433	0.1789
263.7576	0.175
263.9718	0.1782
264.186	0.1766
264.4002	0.1745
264.6144	0.1896
264.8286	0.1815
265.0427	0.1834
265.2569	0.1784
265.471	0.1778
265.6851	0.1832
265.8993	0.1751
266.1134	0.1792
266.3275	0.181
266.5415	0.1802
266.7556	0.1803
266.9697	0.18
267.1837	0.1839
267.3978	0.1796
267.6118	0.1753
267.8258	0.1853
268.0398	0.1812
268.2538	0.1841
268.4677	0.1755
268.6817	0.1792
268.8957	0.1735
269.1096	0.1665
269.3235	0.1775
269.5374	0.1784
269.7514	0.1733
269.9652	0.1791
270.1791	0.1716
270.393	0.174
270.6068	0.1798
270.8207	0.1705
271.0345	0.1703
271.2483	0.1641
271.4622	0.174
271.676	0.1741
271.8897	0.1678
272.1035	0.1771
272.3173	0.1729
272.531	0.1675
272.7448	0.1679
272.9585	0.1655
273.1722	0.167
273.3859	0.1715
273.5996	0.1746
273.8133	0.1721
274.0269	0.1707
274.2406	0.1727
274.4542	0.1693
274.6679	0.1763
274.8815	0.1809
275.0951	0.1885
275.3087	0.1792
275.5223	0.1751
275.7358	0.1791
275.9494	0.1778
276.1629	0.1805
276.3765	0.1748
276.59	0.1765
276.8035	0.1777
277.017	0.1822
277.2305	0.1773
277.444	0.1874
277.6574	0.1794
277.8709	0.1824
278.0843	0.1806
278.2978	0.1857
278.5112	0.1814
278.7246	0.1823
278.938	0.1773
279.1513	0.1812
279.3647	0.1814
279.5781	0.1772
279.7914	0.1765
280.0047	0.179
280.2181	0.1833
280.4314	0.1818
280.6447	0.186
280.8579	0.1747
281.0712	0.1787
281.2845	0.1789
281.4977	0.1855
281.711	0.1846
281.9242	0.1837
282.1374	0.1846
282.3506	0.1794
282.5638	0.1844
282.7769	0.1777
282.9901	0.1855
283.2033	0.1796
283.4164	0.1762
283.6295	0.1858
283.8426	0.1801
284.0557	0.185
284.2688	0.1818
284.4819	0.1824
284.695	0.1882
284.908	0.1826
285.1211	0.1889
285.3341	0.1841
285.5471	0.1891
285.7601	0.1815
285.9731	0.1836
286.1861	0.1855
286.3991	0.1876
286.612	0.1813
286.825	0.1907
287.0379	0.1866
287.2508	0.1888
287.4637	0.186
287.6766	0.186
287.8895	0.1872
288.1024	0.189
288.3152	0.1873
288.5281	0.1871
288.7409	0.1929
288.9538	0.1893
289.1666	0.189
289.3794	0.1854
289.5922	0.1844
289.8049	0.1903
290.0177	0.1896
290.2304	0.1896
290.4432	0.1926
290.6559	0.1968
290.8686	0.19
291.0813	0.1925
291.294	0.1875
291.5067	0.1845
291.7194	0.192
291.932	0.1907
292.1447	0.1985
292.3573	0.1921
292.5699	0.1982
292.7825	0.1908
292.9951	0.1966
293.2077	0.1899
293.4203	0.1927
293.6328	0.1906
293.8454	0.1912
294.0579	0.1882
294.2704	0.191
294.4829	0.1959
294.6954	0.1923
294.9079	0.1909
295.1204	0.1872
295.3328	0.1984
295.5453	0.1952
295.7577	0.1962
295.9701	0.1896
296.1825	0.1949
296.3949	0.1848
296.6073	0.1879
296.8197	0.193
297.0321	0.1947
297.2444	0.1866
297.4567	0.1926
297.6691	0.1939
297.8814	0.1922
298.0937	0.1909
298.306	0.1888
298.5182	0.1937
298.7305	0.195
298.9428	0.1866
299.155	0.1852
299.3672	0.1887
299.5794	0.1915
299.7916	0.1907
300.0038	0.1877
300.216	0.1928
300.4282	0.1926
300.6403	0.1931
300.8525	0.1893
301.0646	0.1919
301.2767	0.1879
301.4888	0.1932
301.7009	0.191
301.913	0.1892
302.125	0.194
302.3371	0.1937
302.5491	0.1958
302.7612	0.1968
302.9732	0.1982
303.1852	0.1899
303.3972	0.1889
303.6092	0.1904
303.8211	0.1883
304.0331	0.187
304.245	0.1849
304.457	0.1919
304.6689	0.1845
304.8808	0.1853
305.0927	0.1894
305.3046	0.1875
305.5164	0.1824
305.7283	0.1851
305.9401	0.1778
306.152	0.1814
306.3638	0.1822
306.5756	0.1809
306.7874	0.1702
306.9992	0.1694
307.2109	0.1734
307.4227	0.1732
307.6344	0.1762
307.8462	0.1683
308.0579	0.1759
308.2696	0.1685
308.4813	0.168
308.693	0.1579
308.9046	0.1637
309.1163	0.1563
309.328	0.1584
309.5396	0.1506
309.7512	0.1564
309.9628	0.1529
310.1744	0.1515
310.386	0.1468
310.5976	0.1524
310.8091	0.1531
311.0207	0.1458
311.2322	0.14
311.4437	0.1415
311.6552	0.1467
311.8667	0.1457
312.0782	0.1406
312.2897	0.1451
312.5012	0.1354
312.7126	0.1349
312.924	0.1327
313.1355	0.1384
313.3469	0.1346
313.5583	0.1374
313.7696	0.1343
313.981	0.1363
314.1924	0.1333
314.4037	0.1347
314.6151	0.1285
314.8264	0.1312
315.0377	0.1334
315.249	0.1322
315.4603	0.1269
315.6716	0.1307
315.8828	0.1287
316.0941	0.1297
316.3053	0.1258
316.5165	0.13
316.7277	0.1291
316.9389	0.1262
317.1501	0.1268
317.3613	0.1243
317.5724	0.1264
317.7836	0.1166
317.9947	0.1212
318.2058	0.1224
318.417	0.121
318.6281	0.1201
318.8391	0.1265
319.0502	0.1249
319.2613	0.1216
319.4723	0.1186
319.6834	0.1237
319.8944	0.1211
320.1054	0.127
320.3164	0.124
320.5274	0.1245
320.7383	0.1335
320.9493	0.1248
321.1602	0.1205
321.3712	0.1238
321.5821	0.1179
321.793	0.1283
322.0039	0.1227
322.2148	0.1273
322.4257	0.1232
322.6365	0.119
322.8474	0.129
323.0582	0.1238
323.269	0.124
323.4798	0.1252
323.6906	0.1221
323.9014	0.1199
324.1122	0.1206
324.3229	0.1282
324.5337	0.1276
324.7444	0.127
324.9551	0.1268
325.1658	0.1266
325.3765	0.1298
325.5872	0.1331
325.7979	0.1237
326.0085	0.1244
326.2192	0.1236
326.4298	0.1277
326.6404	0.1275
326.851	0.1269
327.0616	0.1269
327.2722	0.129
327.4828	0.1259
327.6933	0.1291
327.9039	0.1287
328.1144	0.133
328.3249	0.1344
328.5354	0.1316
328.7459	0.1283
328.9564	0.1338
329.1669	0.1349
329.3773	0.1324
329.5878	0.1335
329.7982	0.1357
330.0086	0.1318
330.219	0.1274
330.4294	0.1389
330.6398	0.1355
330.8502	0.1367
331.0605	0.1325
331.2708	0.1287
331.4812	0.1295
331.6915	0.1363
331.9018	0.1365
332.1121	0.1394
332.3224	0.1335
332.5326	0.1284
332.7429	0.1337
332.9531	0.1375
333.1633	0.1332
333.3735	0.1305
333.5837	0.1411
333.7939	0.14
334.0041	0.1377
334.2143	0.133
334.4244	0.145
334.6346	0.1385
334.8447	0.1369
335.0548	0.1408
335.2649	0.1417
335.475	0.1403
335.685	0.1366
335.8951	0.1324
336.1051	0.1356
336.3152	0.133
336.5252	0.1392
336.7352	0.1391
336.9452	0.1405
337.1552	0.1356
337.3652	0.1327
337.5751	0.1373
337.7851	0.1469
337.995	0.1434
338.2049	0.1454
338.4148	0.1381
338.6247	0.1391
338.8346	0.1397
339.0445	0.1444
339.2543	0.141
339.4642	0.1381
339.674	0.1366
339.8838	0.1431
340.0936	0.1423
340.3034	0.1366
340.5132	0.1371
340.7229	0.1477
340.9327	0.1515
341.1424	0.1407
341.3522	0.1457
341.5619	0.1476
341.7716	0.1474
341.9813	0.1477
342.1909	0.15
342.4006	0.1502
342.6102	0.1455
342.8199	0.1511
343.0295	0.1462
343.2391	0.1594
343.4487	0.1491
343.6583	0.1526
343.8679	0.1463
344.0774	0.1454
344.287	0.1517
344.4965	0.151
344.706	0.1596
344.9155	0.1536
345.125	0.1567
345.3345	0.1675
345.544	0.1517
345.7534	0.1594
345.9629	0.1575
346.1723	0.1702
346.3817	0.1592
346.5911	0.1604
346.8005	0.1682
347.0099	0.1674
347.2193	0.1717
347.4286	0.1729
347.638	0.1624
347.8473	0.1668
348.0566	0.1661
348.2659	0.1684
348.4752	0.1694
348.6845	0.1656
348.8937	0.1688
349.103	0.1691
349.3122	0.1647
349.5214	0.1746
349.7306	0.1737
349.9398	0.1696
350.149	0.1685
350.3582	0.1738
350.5674	0.1776
350.7765	0.1749
350.9856	0.1709
351.1948	0.1755
351.4039	0.1829
351.613	0.1763
351.822	0.1782
352.0311	0.1759
352.2402	0.1782
352.4492	0.1802
352.6582	0.1733
352.8672	0.1856
353.0762	0.1773
353.2852	0.1809
353.4942	0.1861
353.7032	0.1808
353.9121	0.1817
354.1211	0.1901
354.33	0.1892
354.5389	0.1859
354.7478	0.1847
354.9567	0.1788
355.1655	0.1863
355.3744	0.1855
355.5833	0.1841
355.7921	0.1816
356.0009	0.1843
356.2097	0.191
356.4185	0.1868
356.6273	0.1862
356.8361	0.1903
357.0448	0.1854
357.2536	0.1922
357.4623	0.1934
357.671	0.2011
357.8797	0.1996
358.0884	0.1874
358.2971	0.194
358.5057	0.1956
358.7144	0.1946
358.923	0.1999
359.1316	0.2008
359.3402	0.2004
359.5488	0.2004
359.7574	0.2069
359.966	0.1985
360.1746	0.2029
360.3831	0.2059
360.5916	0.2001
360.8002	0.2048
361.0087	0.2057
361.2172	0.2071
361.4256	0.208
361.6341	0.2131
361.8426	0.211
362.051	0.2099
362.2594	0.2085
362.4678	0.2114
362.6762	0.2176
362.8846	0.2157
363.093	0.2206
363.3014	0.221
363.5097	0.2077
363.718	0.2143
363.9264	0.2211
364.1347	0.2147
364.343	0.2184
364.5513	0.2248
364.7595	0.2337
364.9678	0.2156
365.176	0.2348
365.3842	0.2295
365.5925	0.229
365.8007	0.2266
366.0089	0.2309
366.217	0.2372
366.4252	0.2297
366.6333	0.2372
366.8415	0.2382
367.0496	0.2338
367.2577	0.245
367.4658	0.2338
367.6739	0.2345
367.882	0.2437
368.09	0.2249
368.2981	0.2425
368.5061	0.2446
368.7141	0.2398
368.9221	0.2546
369.1301	0.2445
369.3381	0.2525
369.5461	0.2446
369.754	0.2529
369.962	0.2422
370.1699	0.2547
370.3778	0.2573
370.5857	0.2536
370.7936	0.2524
371.0015	0.2585
371.2093	0.2506
371.4172	0.2434
371.625	0.2533
371.8328	0.2491
372.0406	0.2571
372.2484	0.2571
372.4562	0.2594
372.664	0.2517
372.8717	0.2554
373.0795	0.2574
373.2872	0.2715
373.4949	0.2631
373.7026	0.2564
373.9103	0.2545
374.118	0.2703
374.3256	0.269
374.5333	0.2711
374.7409	0.264
374.9485	0.2642
375.1561	0.2746
375.3637	0.2717
375.5713	0.2672
375.7789	0.2706
375.9864	0.2701
376.194	0.2786
376.4015	0.2633
376.609	0.2723
376.8165	0.2767
377.024	0.2736
377.2315	0.2692
377.4389	0.2732
377.6464	0.2765
377.8538	0.2773
378.0612	0.2718
378.2686	0.2739
378.476	0.2884
378.6834	0.2801
378.8908	0.2883
379.0981	0.2748
379.3055	0.2876
379.5128	0.28
379.7201	0.2794
379.9274	0.2847
380.1347	0.292
380.342	0.2908
380.5492	0.2843
380.7565	0.2879
380.9637	0.2895
381.1709	0.2846
381.3781	0.2883
381.5853	0.2913
381.7925	0.288
381.9997	0.2965
382.2068	0.2916
382.4139	0.2938
382.6211	0.2982
382.8282	0.2959
383.0353	0.2963
383.2424	0.2987
383.4494	0.2971
383.6565	0.3021
383.8635	0.2854
384.0706	0.3015
384.2776	0.3036
384.4846	0.3093
384.6916	0.3007
384.8986	0.3072
385.1055	0.3058
385.3125	0.2986
385.5194	0.312
385.7263	0.2956
385.9333	0.3001
386.1402	0.3062
386.347	0.2965
386.5539	0.3039
386.7608	0.3017
386.9676	0.2976
387.1744	0.3049
387.3813	0.299
387.5881	0.2962
387.7948	0.3
388.0016	0.3045
388.2084	0.2973
388.4151	0.2927
388.6219	0.2938
388.8286	0.2978
389.0353	0.3063
389.242	0.2889
389.4487	0.2998
389.6553	0.2889
389.862	0.2832
390.0686	0.2958
390.2753	0.3008
390.4819	0.2892
390.6885	0.2863
390.8951	0.2971
391.1016	0.2888
391.3082	0.2909
391.5147	0.2811
391.7213	0.2815
391.9278	0.2795
392.1343	0.2823
392.3408	0.2869
392.5473	0.2862
392.7537	0.2861
392.9602	0.2724
393.1666	0.2827
393.373	0.2778
393.5794	0.2749
393.7858	0.2813
393.9922	0.2672
394.1986	0.2674
394.4049	0.271
394.6113	0.2716
394.8176	0.2738
395.0239	0.2639
395.2302	0.273
395.4365	0.2738
395.6428	0.2669
395.8491	0.2652
396.0553	0.2669
396.2615	0.2688
396.4678	0.2687
396.674	0.2597
396.8802	0.2747
397.0863	0.2607
397.2925	0.2602
397.4987	0.2552
397.7048	0.261
397.9109	0.2571
398.117	0.2626
398.3231	0.2582
398.5292	0.2487
398.7353	0.2486
398.9413	0.2508
399.1474	0.2521
399.3534	0.2589
399.5594	0.2608
399.7654	0.2493
399.9714	0.2552
400.1774	0.2536
400.3833	0.2593
400.5893	0.254
400.7952	0.2581
401.0011	0.2491
401.207	0.2508
401.4129	0.2534
401.6188	0.2496
401.8247	0.2726
402.0305	0.2558
402.2364	0.2632
402.4422	0.2592
402.648	0.2506
402.8538	0.2573
403.0596	0.2535
403.2654	0.2567
403.4711	0.2591
403.6768	0.246
403.8826	0.2566
404.0883	0.2549
404.294	0.2556
404.4997	0.2557
404.7054	0.2591
404.911	0.2506
405.1167	0.263
405.3223	0.2495
405.5279	0.2582
405.7335	0.2486
405.9391	0.2437
406.1447	0.2571
406.3502	0.2587
406.5558	0.2571
406.7613	0.258
406.9668	0.2589
407.1724	0.2495
407.3778	0.2531
407.5833	0.2453
407.7888	0.2585
407.9942	0.2514
408.1997	0.2498
408.4051	0.2469
408.6105	0.2485
408.8159	0.2488
409.0213	0.2564
409.2267	0.2608
409.432	0.2492
409.6374	0.2501
409.8427	0.2598
410.048	0.2491
410.2533	0.264
410.4586	0.2513
410.6639	0.2601
410.8691	0.2455
411.0744	0.2567
411.2796	0.2608
411.4848	0.2465
411.69	0.2588
411.8952	0.254
412.1004	0.2563
412.3056	0.2465
412.5107	0.2531
412.7158	0.2623
412.921	0.2555
413.1261	0.2481
413.3312	0.2528
413.5362	0.2684
413.7413	0.2528
413.9464	0.2435
414.1514	0.2395
414.3564	0.2534
414.5614	0.253
414.7664	0.2458
414.9714	0.2392
415.1764	0.2512
415.3813	0.2386
415.5863	0.2529
415.7912	0.2466
415.9961	0.2458
416.201	0.2516
416.4059	0.2513
416.6108	0.2538
416.8156	0.2415
417.0205	0.2452
417.2253	0.2514
417.4301	0.2522
417.6349	0.2452
417.8397	0.2468
418.0445	0.2394
418.2492	0.2417
418.454	0.2468
418.6587	0.2367
418.8634	0.2489
419.0681	0.2448
419.2728	0.2341
419.4775	0.2527
419.6822	0.2423
419.8868	0.24
420.0915	0.2363
420.2961	0.2341
420.5007	0.2412
420.7053	0.2354
420.9099	0.2356
421.1144	0.2362
421.319	0.2275
421.5235	0.2305
421.728	0.2381
421.9325	0.2256
422.137	0.2311
422.3415	0.2278
422.546	0.2224
422.7504	0.2237
422.9549	0.233
423.1593	0.2253
423.3637	0.2311
423.5681	0.2291
423.7725	0.2251
423.9769	0.2278
424.1812	0.2152
424.3856	0.2145
424.5899	0.2157
424.7942	0.208
424.9985	0.2226
425.2028	0.226
425.4071	0.2232
425.6113	0.2225
425.8156	0.2224
426.0198	0.2203
426.224	0.2133
426.4282	0.2038
426.6324	0.2035
426.8366	0.2107
427.0407	0.2114
427.2449	0.2026
427.449	0.2095
427.6531	0.2191
427.8572	0.2068
428.0613	0.2135
428.2654	0.1999
428.4694	0.1858
428.6735	0.2009
428.8775	0.2043
429.0815	0.202
429.2855	0.1945
429.4895	0.1953
429.6935	0.1906
429.8975	0.1845
430.1014	0.1913
430.3053	0.196
430.5093	0.181
430.7132	0.1843
430.9171	0.1811
431.1209	0.1943
431.3248	0.179
431.5286	0.1781
431.7325	0.1805
431.9363	0.1738
432.1401	0.1681
432.3439	0.1748
432.5477	0.1712
432.7514	0.165
432.9552	0.1623
433.1589	0.1647
433.3627	0.163
433.5664	0.1625
433.7701	0.1636
433.9737	0.1653
434.1774	0.1606
434.3811	0.1475
434.5847	0.1566
434.7883	0.1569
434.9919	0.163
435.1955	0.151
435.3991	0.151
435.6027	0.1445
435.8062	0.1556
436.0098	0.1424
436.2133	0.1477
436.4168	0.1404
436.6203	0.1371
436.8238	0.1371
437.0272	0.1402
437.2307	0.1281
437.4341	0.1354
437.6375	0.1342
437.841	0.1188
438.0443	0.1251
438.2477	0.124
438.4511	0.1145
438.6545	0.1246
438.8578	0.1168
439.0611	0.1296
439.2644	0.1196
439.4677	0.124
439.671	0.1131
439.8743	0.1182
440.0775	0.1087
440.2808	0.106
440.484	0.1066
440.6872	0.1086
440.8904	0.0966
441.0936	0.1062
441.2967	0.0936
441.4999	0.095
441.703	0.0951
441.9062	0.1035
442.1093	0.1078
442.3124	0.089
442.5155	0.0925
442.7185	0.0884
442.9216	0.091
443.1246	0.0921
443.3276	0.0839
443.5307	0.081
443.7337	0.0917
443.9366	0.0754
444.1396	0.0759
444.3426	0.0781
444.5455	0.0776
444.7484	0.081
444.9513	0.0794
445.1542	0.0767
445.3571	0.0783
445.56	0.0701
445.7628	0.0717
445.9657	0.0756
446.1685	0.07
446.3713	0.0766
446.5741	0.0724
446.7769	0.0739
446.9797	0.0653
447.1824	0.06
447.3852	0.0572
447.5879	0.0614
447.7906	0.0597
447.9933	0.0625
448.196	0.0521
448.3986	0.0577
448.6013	0.0509
448.8039	0.0663
449.0066	0.0669
449.2092	0.0599
449.4118	0.0475
449.6143	0.0545
449.8169	0.0521
450.0195	0.0407
450.222	0.0469
450.4245	0.0511
450.627	0.0503
450.8295	0.0491
451.032	0.0436
451.2345	0.0385
451.4369	0.0432
451.6394	0.0387
451.8418	0.0395
452.0442	0.045
452.2466	0.035
452.449	0.0394
452.6513	0.0414
452.8537	0.0332
453.056	0.0384
453.2583	0.0364
453.4607	0.0255
453.663	0.0366
453.8652	0.0351
454.0675	0.043
454.2697	0.0305
454.472	0.0319
454.6742	0.037
454.8764	0.0394
455.0786	0.02
455.2808	0.0279
455.4829	0.0341
455.6851	0.0227
455.8872	0.0227
456.0893	0.0346
456.2915	0.0222
456.4935	0.033
456.6956	0.0181
456.8977	0.0201
457.0997	0.0298
457.3018	0.0237
457.5038	0.0317
457.7058	0.0281
457.9078	0.031
458.1098	0.0274
458.3117	0.0306
458.5137	0.0113
458.7156	0.019
458.9175	0.0255
459.1194	0.0258
459.3213	0.0135
459.5232	0.0219
459.725	0.0185
459.9269	0.0187
460.1287	0.0163
460.3305	0.026
460.5323	0.0237
460.7341	0.0282
460.9359	0.0038
461.1376	0.0189
461.3394	0.0183
461.5411	0.0251
461.7428	0.016
461.9445	0.0178
462.1462	0.0102
462.3479	0.0173
462.5495	0.0296
462.7512	0.0192
462.9528	0.0165
463.1544	0.0136
463.356	0.0021
463.5576	0.0198
463.7592	0.018
463.9607	0.0145
464.1623	0.0223
464.3638	0.0091
464.5653	0.0117
464.7668	0.0157
464.9683	0.01
465.1697	0.0137
465.3712	0.0082
465.5726	0.0124
465.7741	0.0187
465.9755	0.0191
466.1769	0.007
466.3782	0.0011
466.5796	0.027
466.7809	0.0099
466.9823	0.0127
467.1836	0.0118
467.3849	0.0131
467.5862	0.0089
467.7875	0.0096
467.9887	0.0161
468.19	0.0141
468.3912	0.0225
468.5924	0.0122
468.7936	0.0142
468.9948	0.0016
469.196	0.0161
469.3972	0.0009
469.5983	0.0114
469.7994	0.0186
470.0006	0.0114
470.2017	-0.001
470.4027	0.0202
470.6038	0.0214
470.8049	0.0134
471.0059	0.0173
471.2069	0.0125
471.408	0.0245
471.6089	0.0213
471.8099	0.0094
472.0109	0.0075
472.2119	0.0156
472.4128	0.0026
472.6137	0.0099
472.8146	0.0134
473.0155	0.0168
473.2164	0.0076
473.4173	0.0055
473.6181	0.0084
473.819	0.0145
474.0198	0.0064
474.2206	0.0018
474.4214	0.0131
474.6222	0.0012
474.8229	0.006
475.0237	0.0109
475.2244	0.0093
475.4251	0.0138
475.6258	0.0086
475.8265	0.0117
476.0272	0.0001
476.2278	0.0049
476.4285	0.0091
476.6291	0.0057
476.8297	0.0077
477.0303	-0.0015
477.2309	0.0126
477.4315	0.0106
477.632	0.0016
477.8326	0.0124
478.0331	0.016
478.2336	0.004
478.4341	0.0039
478.6346	0.0043
478.8351	-0
479.0355	0.0146
479.236	0.0113
479.4364	0.0005
479.6368	0.0109
479.8372	0.0091
480.0376	-0.0061
480.2379	0.0059
480.4383	0.0137
480.6386	-0.0003
480.8389	0.0084
481.0392	0.0077
481.2395	0.0133
481.4398	0.0106
481.6401	0.0075
481.8403	0.0053
482.0405	0.0008
482.2408	0.0045
482.441	0.0094
482.6411	0.009
482.8413	0.0012
483.0415	0.0132
483.2416	0.0061
483.4417	0.009
483.6419	0
483.8419	0.0031
484.042	0.0097
484.2421	0.0016
484.4422	0.0034
484.6422	0.0042
484.8422	0.0056
485.0422	0.0065
485.2422	0.0035
485.4422	0.0035
485.6422	0.0018
485.8421	0.0027
486.042	0.0155
486.242	0.0034
486.4419	0.0068
486.6417	0.0007
486.8416	0.0039
487.0415	-0.0021
487.2413	0.0032
487.4411	0.0061
487.641	0.0096
487.8408	0.0141
488.0405	0.0074
488.2403	-0.0047
488.4401	0.0053
488.6398	0.0085
488.8395	0.0075
489.0392	0.0119
489.2389	0.0086
489.4386	0.0015
489.6383	0.0084
489.8379	-0.0005
490.0376	0.008
490.2372	-0.0001
490.4368	0.0065
490.6364	0.0001
490.836	0.0015
491.0355	0.0015
491.2351	0.0016
491.4346	0.0085
491.6341	0.002
491.8336	0.0134
492.0331	0.0027
492.2326	0.011
492.432	0.0051
492.6315	0.011
492.8309	0.0058
493.0303	0.0128
493.2297	0.0134
493.4291	0.009
493.6284	0.0167
493.8278	0.0014
494.0271	0.0081
494.2264	0.0009
494.4257	0.0082
494.625	0.0073
494.8243	-0.0041
495.0236	0.0079
495.2228	0.0144
495.422	0
495.6213	0.0091
495.8205	0.0141
496.0196	-0.0003
496.2188	0.0045
496.418	0.0015
496.6171	-0.0019
496.8162	0.0083
497.0153	0.0014
497.2144	0.0085
497.4135	0.0039
497.6126	0.0083
497.8116	-0.0027
498.0107	0.0098
498.2097	0.0042
498.4087	0.0085
498.6077	0.0011
498.8067	0.0024
499.0056	0.0078
499.2046	0.0038
499.4035	0.0077
499.6024	-0.0004
499.8013	0.0123
500.0002	0.0028
500.199	0.0078
500.3979	0.0042
500.5967	0.0015
500.7956	0.0108
500.9944	0.0021
501.1932	0.0162
501.3919	0.0091
501.5907	0.0089
501.7895	0.0111
501.9882	0.0008
502.1869	0.0117
502.3856	0.0078
502.5843	0.0086
502.783	0.0066
502.9816	0.0132
503.1803	0.0062
503.3789	0.0104
503.5775	0.0002
503.7761	0.0015
503.9747	0.0085
504.1732	-0.0003
504.3718	0.022
504.5703	0.0041
504.7689	0.0003
504.9674	0.0046
505.1658	-0.0012
505.3643	0.0043
505.5628	0.0093
505.7612	0.0117
505.9597	-0.0022
506.1581	0.0009
506.3565	-0.0023
506.5549	0.0057
506.7532	0.0019
506.9516	0.0117
507.1499	-0.0013
507.3482	0.0087
507.5465	0.0029
507.7448	0.0125
507.9431	0.01
508.1414	-0.0021
508.3396	0.0063
508.5379	-0.0014
508.7361	0.0131
508.9343	0.0092
509.1325	0.0187
509.3306	0.0094
509.5288	-0.0045
509.7269	0.0081
509.9251	0.0046
510.1232	0.01
510.3213	0.0076
510.5193	0.004
510.7174	0.0087
510.9154	0.0135
511.1135	0.0052
511.3115	0.0094
511.5095	0.0025
511.7075	0.0055
511.9055	0.0099
512.1034	0.0139
512.3014	0.0006
512.4993	0.008
512.6972	0.013
512.8951	0.0049
513.093	0.005
513.2908	0.0176
513.4887	0.0049
513.6865	-0.0029
513.8844	0.0063
514.0822	0.0052
514.2799	0.0019
514.4777	0.0041
514.6755	-0.0008
514.8732	0.0001
515.0709	0.0027
515.2687	0.0055
515.4664	0.0104
515.664	0.0036
515.8617	0.0095
516.0594	0.0134
516.257	0.0045
516.4546	0.0147
516.6522	0.0085
516.8498	0.01
517.0474	0.01
517.2449	0.0057
517.4425	0.0087
517.64	0.0153
517.8375	0.0125
518.035	0.0061
518.2325	0.0035
518.43	0.0021
518.6274	0.0065
518.8249	0.0009
519.0223	0.0173
519.2197	0.0104
519.4171	-0.002
519.6145	0.0143
519.8118	0.0029
520.0092	0.0013
520.2065	0.0161
520.4038	0.0134
520.6011	0.0175
520.7984	0.0186
520.9956	0.012
521.1929	0.0163
521.3901	0.0112
521.5874	0.0115
521.7846	-0.008
521.9818	-0.0016
522.1789	0.0032
522.3761	0.0187
522.5732	-0.0003
522.7704	0.0025
522.9675	0.0004
523.1646	-0.0008
523.3617	0.0096
523.5587	0.006
523.7558	0.0058
523.9528	0.0144
524.1498	0.0072
524.3468	-0.0035
524.5438	-0.002
524.7408	0.0007
524.9378	0.0033
525.1347	0.0127
525.3316	-0.0006
525.5285	0.0178
525.7254	0.0082
525.9223	0.0143
526.1192	0.0108
526.316	0.0092
526.5129	0.0141
526.7097	0.0068
526.9065	0.0144
527.1033	0.0023
527.3	-0.0008
527.4968	0.0204
527.6935	-0.0026
527.8903	0.0053
528.087	0.0064
528.2837	0.013
528.4804	-0.0004
528.677	0.0094
528.8737	0.0095
529.0703	0.0052
529.2669	0.0113
529.4635	0.0036
529.6601	-0.0031
529.8567	0.0011
530.0532	0.0085
530.2498	0.0035
530.4463	-0.0129
530.6428	-0.0038
530.8393	0.0237
531.0358	0.0054
531.2322	-0.0024
531.4287	0.0122
531.6251	-0.0021
531.8215	-0.0037
532.0179	0.0069
532.2143	0.0047
532.4107	0.0088
532.607	0.0057
532.8034	0.0057
532.9997	0.0049
533.196	0.0033
533.3923	0.0157
533.5886	0.0083
533.7848	0.0042
533.9811	0.012
534.1773	0.0069
534.3735	0.0059
534.5697	-0.0021
534.7659	0.0037
534.9621	0.0035
535.1582	0.009
535.3544	0.0077
535.5505	0.0039
535.7466	0.0033
535.9427	0.0047
536.1387	0.0077
536.3348	0.0036
536.5308	0.0083
536.7269	0.0065
536.9229	0.0055
537.1189	0.0158
537.3148	0.0108
537.5108	0.0115
537.7068	0.0121
537.9027	-0.008
538.0986	0.0137
538.2945	0.0041
538.4904	-0.0042
538.6863	-0.0042
538.8821	0.0122
539.078	-0.0043
539.2738	0.001
539.4696	0.0021
539.6654	0.0118
539.8611	0.0018
540.0569	0.0067
540.2526	0.0103
540.4484	-0.0046
540.6441	0.0018
540.8398	0.0093
541.0355	0.004
541.2311	-0.0013
541.4268	0.006
541.6224	0.0171
541.818	0.0064
542.0136	0.0137
542.2092	0.0053
542.4048	0.0034
542.6003	0.0063
542.7959	0.0142
542.9914	0.012
543.1869	0.0084
543.3824	0.0043
543.5779	0.0153
543.7734	0.0097
543.9688	0.016
544.1642	0.0093
544.3596	0.0057
544.555	0.011
544.7504	0.017
544.9458	0.0062
545.1411	-0.0029
545.3365	0.0059
545.5318	0.0061
545.7271	0.0137
545.9224	0.0021
546.1177	0.0062
546.3129	0.0121
546.5081	0.0102
546.7034	0.0025
546.8986	0.004
547.0938	0.0114
547.289	0.011
547.4841	0.0073
547.6793	0.0075
547.8744	0.0067
548.0695	0.0031
548.2646	0.0135
548.4597	0.0036
548.6548	0.0188
548.8498	0.0139
549.0448	0.0094
549.2399	0.0139
549.4349	0.0153
549.6298	0.0118
549.8248	0.0032
550.0198	0.0018
550.2147	0.0057
550.4096	-0.0096
550.6045	0.0104
550.7994	-0.0008
550.9943	0.0117
551.1892	-0.0066
551.384	0.0046
551.5788	0.0061
551.7737	0.0079
551.9685	0.0093
552.1632	0.0037
552.358	0.0066
552.5528	0.0059
552.7475	0.0068
552.9422	0.0106
553.1369	0.0195
553.3316	0.0127
553.5263	0.0077
553.7209	0.0072
553.9156	0.008
554.1102	0.0038
554.3048	-0.0011
554.4994	0.0036
554.694	0.0138
554.8885	0.0119
555.0831	0.0131
555.2776	0.0085
555.4721	0.0103
555.6666	0.0053
555.8611	0.0073
556.0555	0.0076
556.25	0.0043
556.4444	-0.0055
556.6388	0.0087
556.8332	0.0137
557.0276	0.0039
557.222	0.0014
557.4163	-0.004
557.6107	0.0021
557.805	-0.0033
557.9993	0.0112
558.1936	0.0033
558.3879	0.0134
558.5821	0
558.7764	0.004
558.9706	0.0079
559.1648	0.0077
559.359	0.0029
559.5532	0.0049
559.7473	-0.0038
559.9415	0.0121
560.1356	0.0201
560.3297	-0.0041
560.5238	0.0086
560.7179	-0.001
560.9119	-0.0064
561.106	-0.0046
561.3	-0.001
561.494	-0.0071
561.688	0.0098
561.882	0.0045
562.076	-0.0005
562.2699	0.008
562.4639	0.0074
562.6578	0.0075
562.8517	0.0021
563.0456	0.0062
563.2395	0.011
563.4333	0.0094
563.6272	0.0039
563.821	0.0011
564.0148	0.0024
564.2086	0.0045
564.4024	0.0109
564.5961	0.0059
564.7899	0.0128
564.9836	0.0061
565.1773	0.0167
565.371	0.0032
565.5647	0.0054
565.7584	0.0183
565.952	0.001
566.1456	0.0064
566.3393	0.0037
566.5329	0.0088
566.7264	0.0045
566.92	0.0032
567.1136	0.0014
567.3071	0.006
567.5006	0.0046
567.6941	0.003
567.8876	0.0061
568.0811	0.0195
568.2745	0.0057
568.468	0.0081
568.6614	0.0116
568.8548	0.0081
569.0482	0.0084
569.2416	0.0104
569.4349	0.0071
569.6283	0.0056
569.8216	0.0059
570.0149	0.0079
570.2082	0.0078
570.4015	0.0035
570.5947	0.0068
570.788	0.0092
570.9812	0.0041
571.1744	0.0054
571.3676	0.0053
571.5608	0.0065
571.754	0.0107
571.9471	0.0069
572.1402	0.006
572.3333	0.0041
572.5264	0.0028
572.7195	0.0025
572.9126	0.0073
573.1057	0.0033
573.2987	0.0019
573.4917	0.0062
573.6847	0.0031
573.8777	0.007
574.0707	0.005
574.2636	0.0048
574.4566	0.0038
574.6495	0.0059
574.8424	0.0096
575.0353	0.0039
575.2281	0.0103
575.421	0.0049
575.6138	0.0029
575.8067	0.009
575.9995	0.0067
576.1923	0.0096
576.385	0.0069
576.5778	0.01
576.7706	0.0043
576.9633	0.0032
577.156	-0.0035
577.3487	0.0037
577.5414	0.0018
577.734	0.0038
577.9267	0.0051
578.1193	0.0103
578.3119	0.0017
578.5045	0.004
578.6971	0.0037
578.8897	0.0046
579.0822	0.011
579.2747	0.0077
579.4673	0.0048
579.6598	0.0045
579.8522	0.0032
580.0447	0.0068
580.2372	0.0065
580.4296	0.0087
580.622	0.0025
580.8144	0.0067
581.0068	0.0064
581.1992	0.0034
581.3915	0.0001
581.5839	0.0055
581.7762	0.0034
581.9685	0.0042
582.1608	0.0077
582.353	0.0064
582.5453	0.0099
582.7375	0.0037
582.9298	0.0003
583.122	0.0035
583.3142	0.0116
583.5063	0.0022
583.6985	-0.0025
583.8906	0.002
584.0827	0.0059
584.2749	0.0017
584.4669	0.0031
584.659	0.0089
584.8511	0.0057
585.0431	0.0091
585.2352	0.0061
585.4272	0.0065
585.6192	0.0068
585.8111	0.0044
586.0031	0.0037
586.195	0.0049
586.387	0.0023
586.5789	0.0084
586.7708	0.0093
586.9627	0.0029
587.1545	0.0036
587.3464	0.005
587.5382	0.0046
587.73	0.0058
587.9218	0
588.1136	0.004
588.3053	0.0066
588.4971	-0.0013
588.6888	0.0034
588.8805	0.0046
589.0722	0.0115
589.2639	0.0056
589.4556	0.0104
589.6472	0.0079
589.8389	0.0078
590.0305	0.007
590.2221	0.0056
590.4137	0.0029
590.6052	0.0028
590.7968	0.0058
590.9883	0.0065
591.1798	0.0021
591.3713	0.001
591.5628	0.0006
591.7543	0.0055
591.9458	0.0045
592.1372	0.0053
592.3286	0.0085
592.52	0.0091
592.7114	0.0052
592.9028	0.0123
593.0941	0.0038
593.2855	0.0044
593.4768	0.0116
593.6681	0.0066
593.8594	0.0046
594.0506	-0.0016
594.2419	0.0056
594.4331	0.0025
594.6244	0.004
594.8156	0.0078
595.0067	0.0025
595.1979	0.0044
595.3891	0.0053
595.5802	0.0054
595.7713	0.0039
595.9624	0.0124
596.1535	0.0066
596.3446	0.0009
596.5357	0.0122
596.7267	0.0029
596.9177	0.0033
597.1087	0.0032
597.2997	0.0042
597.4907	0.0014
597.6817	0.01
597.8726	0.0103
598.0635	-0.0031
598.2544	0.0074
598.4453	0.0084
598.6362	0.0011
598.827	0.0041
599.0179	0.0045
599.2087	0.0038
599.3995	0.0059
599.5903	0.0039
599.7811	0.0097
599.9718	0.0002
600.1626	-0
600.3533	0.0032
600.544	0.0032
600.7347	0.0073
600.9254	0.0171
601.116	0.0079
601.3067	0.0026
601.4973	0.0071
601.6879	-0.0036
601.8785	0.0124
602.0691	0.0072
602.2596	0.007
602.4502	0.0055
602.6407	0.0057
602.8312	0.0071
603.0217	0.0074
603.2122	0.0034
603.4027	0.0062
603.5931	-0.0017
603.7835	0.0047
603.9739	-0.0014
604.1643	0.0018
604.3547	0.0065
604.5451	0.007
604.7354	-0.0005
604.9257	0.004
605.116	-0.0028
605.3063	0.0036
605.4966	0.0016
605.6869	0.0049
605.8771	0.0068
606.0673	0.0045
606.2575	0.0019
606.4477	0.0086
606.6379	0.0012
606.8281	0.0046
607.0182	0.0016
607.2083	0.0084
607.3985	0.0005
607.5885	-0.0013
607.7786	0.0046
607.9687	0.0134
608.1587	0.0095
608.3488	0.0063
608.5388	0.0045
608.7288	0.0012
608.9187	-0.001
609.1087	0.0074
609.2986	0.0098
609.4886	0.0042
609.6785	0.007
609.8684	-0.0052
610.0582	0.0027
610.2481	0.0047
610.4379	0.0066
610.6278	0.0088
610.8176	0.0075
611.0074	0.0045
611.1971	0.0033
611.3869	0.01
611.5766	0.0022
611.7664	0.0157
611.9561	0.0083
612.1458	0.0058
612.3354	0.0163
612.5251	0.0037
612.7147	0.0156
612.9044	-0.0004
613.094	0.0065
613.2836	-0.001
613.4731	0.0024
613.6627	0.0126
613.8522	0.0095
614.0417	0.0067
614.2313	0.0026
614.4207	0.0047
614.6102	0.0066
614.7997	0.0115
614.9891	0.0042
615.1785	-0.0016
615.3679	0.0101
615.5573	0.0081
615.7467	0.0004
615.9361	0.0021
616.1254	0.0105
616.3147	0.0042
616.504	0.0035
616.6933	0.0019
616.8826	0.0032
617.0718	0.0138
617.2611	0.0029
617.4503	0.0043
617.6395	0.0028
617.8287	0.0064
618.0179	0.0019
618.207	0.0069
618.3961	0.0012
618.5853	0.0113
618.7744	0.0014
618.9634	0.0107
619.1525	0.0045
619.3416	-0.0044
619.5306	0.0095
619.7196	0.0071
619.9086	0.0041
620.0976	-0.006
620.2866	0.0078
620.4755	0.0001
620.6645	0.0104
620.8534	-0.0009
621.0423	0.0029
621.2312	0.0099
621.42	0.0003
621.6089	0.0048
621.7977	0.0065
621.9865	0.0005
622.1753	-0.0046
622.3641	-0.0037
622.5529	-0.0008
622.7416	0.0018
622.9303	-0.0014
623.1191	0.0042
623.3078	0.0066
623.4964	0.0075
623.6851	-0.0024
623.8737	0.0049
624.0624	-0.0051
624.251	0.0073
624.4396	0.0037
624.6282	0.0109
624.8167	-0.0026
625.0053	0.0117
625.1938	0.004
625.3823	0.014
625.5708	0.0049
625.7593	-0.0012
625.9477	0.0164
626.1362	0.0007
626.3246	0.0029
626.513	0.019
626.7014	0.0047
626.8898	0.008
627.0781	0.0078
627.2665	0.0112
627.4548	0.003
627.6431	0.0111
627.8314	0.0137
628.0197	0.0174
628.2079	0.0073
628.3962	0.0198
628.5844	0.0044
628.7726	-0.0011
628.9608	0.0057
629.1489	0.0062
629.3371	-0.0058
629.5252	0.0178
629.7134	-0.0089
629.9015	0.0132
630.0895	-0.0053
630.2776	0.01
630.4657	0.0093
630.6537	0.0102
630.8417	-0.0073
631.0297	-0.0024
631.2177	0.0039
631.4057	0.0048
631.5936	-0.007
631.7815	0.0039
631.9695	0.0282
632.1574	0.0065
632.3452	0.0149
632.5331	0.0064
632.7209	0.0186
632.9088	0.012
633.0966	0.0263
633.2844	0.0014
633.4722	0.006
633.6599	0.0204
633.8477	0.0072
634.0354	0.0082
634.2231	0.0082
634.4108	0.0092
634.5985	0.0088
634.7861	0.012
634.9738	-0.0116
635.1614	0.005
635.349	0.0005
635.5366	0.0213
635.7242	-0.003
635.9117	0.0091
636.0993	0.0108
636.2868	0.0046
636.4743	0.0093
636.6618	-0.0043
636.8492	0.0076
637.0367	0.0175
637.2241	0.009
637.4115	0.0368
637.5989	0.0111
637.7863	0.0383
637.9737	0.0001
638.161	0.015
638.3484	0.0029
638.5357	0.0065
638.723	0.0227
638.9103	-0.0033
639.0975	0.0095
639.2848	0.0124
639.472	-0.0061
639.6592	-0.0028
639.8464	-0.002
640.0336	0.011
640.2208	-0.0117
640.4079	-0.0048
640.595	0.0025
640.7821	0.0156
640.9692	0.0065
641.1563	-0.0093
641.3434	0.0068
641.5304	0.0249
641.7174	0.0108
641.9044	-0.0049
642.0914	0.0084
642.2784	-0.0046
642.4653	-0.0074
642.6523	0.006
642.8392	-0.0063
643.0261	0.0089
643.213	0.0192
643.3999	0.0049
643.5867	0.0147
643.7735	0.0018
643.9604	0.01
644.1472	0.0144
644.3339	-0.0027
644.5207	-0.0009
644.7075	-0.0035
644.8942	-0.0095
645.0809	0.0278
645.2676	-0.0065
645.4543	0.0003
645.6409	0.0213
645.8276	0.0106
646.0142	-0.001
646.2008	0.0211
646.3874	-0.0081
646.574	0.0093
646.7605	0.0043
646.9471	0.0093
647.1336	-0.033
647.3201	0.0125
647.5066	0.0101
647.6931	0.0209
647.8795	0.0083
648.0659	0.0053
648.2524	0.0046
648.4388	0.0071
648.6252	0.0155
648.8115	-0.0004
648.9979	0.0174
649.1842	0.0134
649.3705	0.0165
649.5568	-0.0111
649.7431	-0.0012
649.9294	-0.0129
650.1156	-0.0074
650.3018	0.0351
650.488	0.0048
650.6742	0.0331
650.8604	0.0071
651.0466	-0.0093
651.2327	0.005
651.4188	0.0113
651.6049	0.027
651.791	0.0166
651.9771	0.0186
652.1632	0.0005
652.3492	0.0001
652.5352	0.0201
652.7212	0.008
652.9072	-0.003
653.0932	0.0068
653.2791	0.0113
653.465	0.0053
653.651	0.0116
653.8369	0.0093
654.0227	0.0095
654.2086	-0.0049
654.3944	0.0113
654.5803	0.0062
654.7661	0.002
654.9519	-0.0039
655.1377	0.0001
655.3234	0.0001
655.5092	0.0001
655.6949	0.0001
655.8806	0.0001
656.0663	0.0001
656.2519	0.0001
656.4376	0.0001
656.6232	0.0001
656.8088	0.0001
656.9945	0.0001
657.18	0.0001
657.3656	0.0001
657.5511	0.0001
657.7367	0.0001
657.9222	0.0001
658.1077	0.0001
658.2932	0.0001
658.4786	0.0001
658.6641	0.0001
658.8495	0.0001
659.0349	0.0001
659.2203	0.0001
659.4057	0.0001
659.591	0.1254
659.7764	0.0353
659.9617	0.0035
660.147	0.007
660.3323	0.0154
660.5176	0.0082
660.7028	-0.008
660.888	0.0079
661.0733	0.0357
661.2585	0.0141
661.4436	0.0248
661.6288	0.0331
661.8139	-0.0064
661.9991	-0.0125
662.1842	-0.0157
662.3693	0.0183
662.5544	0.0133
662.7394	0.0266
662.9245	0.0174
663.1095	-0.0064
663.2945	-0.0214
663.4795	-0.0069
663.6644	-0.0211
663.8494	0.0079
664.0343	0.0044
664.2193	0.0043
664.4042	-0.0025
664.589	0.0243
664.7739	0.0011
664.9587	0.0083
665.1436	-0.0098
665.3284	0.0006
665.5132	0.002
665.698	0.0053
665.8827	0.0196
666.0675	0.0055
666.2522	0.0076
666.4369	0.0143
666.6216	0.0104
666.8063	0.008
666.9909	0.0052
667.1756	-0.0009
667.3602	-0.0134
667.5448	-0.0057
667.7294	0.0302
667.9139	-0.0047
668.0985	0.0142
668.283	0.0225
668.4675	0.0309
668.652	0.0311
668.8365	-0.0019
669.0209	0.005
669.2054	0.0023
669.3898	0.0026
669.5742	0.0182
669.7586	0.0185
669.943	0.0075
670.1273	0.0071
670.3117	0.0178
670.496	0.005
670.6803	0.0117
670.8646	-0.004
671.0488	0.0122
671.2331	-0.0088
671.4173	0.009
671.6015	0.0061
671.7857	0.0111
671.9699	0.0103
672.1541	0.0113
672.3382	0.0006
672.5223	0.0012
672.7064	0.0144
672.8905	0.0001
673.0746	0.0095
673.2587	0.0239
673.4427	-0.0052
673.6267	0.0146
673.8107	0.0249
673.9947	0.017
674.1787	0.0162
674.3626	0.008
674.5465	0.0081
674.7304	0.0163
674.9143	0.0131
675.0982	0.0048
675.2821	0.0088
675.4659	0.0114
675.6497	-0.0014
675.8335	0.0089
676.0173	0.006
676.2011	0.0297
676.3849	0.0146
676.5686	0.018
676.7523	0.0084
676.936	0.0106
677.1197	0.0031
677.3034	0.028
677.487	0.0225
677.6706	0.0219
677.8542	-0.0015
678.0378	-0.0056
678.2214	0.0078
678.405	-0.0054
678.5885	0.0227
678.772	0.0055
678.9555	0.0045
679.139	0.0047
679.3225	0.0048
679.5059	0.0066
679.6894	0.0094
679.8728	0.0136
680.0562	0.0124
680.2395	-0.0006
680.4229	0.0132
680.6062	0.0155
680.7896	-0.0079
680.9729	0.0028
681.1562	0.0031
681.3394	0.0053
681.5227	0.0064
681.7059	0.0078
681.8891	0.025
682.0723	0.0157
682.2555	0.0092
682.4387	0.0076
682.6218	0.0265
682.805	0.0099
682.9881	0.0229
683.1712	0.0055
683.3542	0.0129
683.5373	-0.0084
683.7203	-0.003
683.9034	-0.0013
684.0864	-0.0001
684.2694	0.0147
684.4523	0.0079
684.6353	0.0045
684.8182	-0.0032
685.0011	0.007
685.184	-0.0059
685.3669	0.0229
685.5498	-0.0076
685.7326	-0.0059
685.9154	0.0121
686.0982	0.0231
686.281	-0.0012
686.4638	0.0211
686.6465	0.0048
686.8293	-0.0014
687.012	0.0013
687.1947	0.0125
687.3774	0.0096
687.56	-0.0254
687.7427	0.0214
687.9253	-0.0303
688.1079	0.0218
688.2905	0.0208
688.4731	0.0312
688.6556	0.0021
688.8382	-0.0192
689.0207	0.0162
689.2032	0.0026
689.3857	-0.0015
689.5681	0.002
689.7506	0.0174
689.933	0.0001
690.1154	0.0007
690.2978	0.0182
690.4802	0.0307
690.6626	0.0257
690.8449	0.031
691.0272	-0.0078
691.2095	-0.0231
691.3918	-0.0023
691.5741	0.0064
691.7563	-0.0092
691.9386	0.0218
692.1208	0.0155
692.303	0.0062
692.4852	0.008
692.6673	0.0141
692.8495	-0.0053
693.0316	0.0142
693.2137	0.0056
693.3958	0.0057
693.5778	-0.0109
693.7599	0.0155
693.9419	0.0186
694.1239	0.0208
694.3059	0.0211
694.4879	0.0226
694.6699	0.0029
694.8518	0.0041
695.0337	0.0077
695.2157	0.0334
695.3975	0.013
695.5794	0.0031
695.7613	0.0098
695.9431	-0.0057
696.1249	0.0219
696.3067	0.0009
696.4885	0.022
696.6703	0.0031
696.852	0.0172
697.0337	0.014
697.2154	0.0228
697.3971	0.027
697.5788	0.016
697.7605	0.019
697.9421	0.0282
698.1237	0.0139
698.3053	-0.0062
698.4869	-0.0073
698.6685	0.0028
698.85	0.0104
699.0315	-0.011
699.213	0.0122
699.3945	0.0087
699.576	0.0466
699.7575	0.0322
699.9389	-0.011
700.1203	0.0172
700.3017	0.0173
700.4831	-0.0014
700.6645	0.0574
700.8458	0.0225
701.0271	0.041
701.2084	0.0108
701.3897	0.0172
701.571	0.0005
701.7523	-0.0009
701.9335	-0.0011
702.1147	0.0172
702.2959	0.0041
702.4771	0.0004
702.6583	0.0123
702.8394	-0.0142
703.0205	0.028
703.2016	0.0008
703.3827	0.0024
703.5638	0.0078
703.7449	0.0156
703.9259	0.0386
704.1069	0.0059
704.2879	0.0251
704.4689	0.0068
704.6499	0.0279
704.8308	0.0162
705.0117	0.0147
705.1927	0.0051
705.3735	0.031
705.5544	0.0015
705.7353	0.0243
705.9161	-0.0178
706.0969	0.0118
706.2777	0.0146
706.4585	-0.0087
706.6393	0.0297
706.82	0.0055
707.0007	0.0087
707.1815	0.0193
707.3621	0.0211
707.5428	0.0232
707.7235	0.0121
707.9041	0.0239
708.0847	0.0117
708.2653	0.0199
708.4459	0.0088
708.6265	-0.0016
708.807	0.0092
708.9875	-0.0039
709.168	-0.0002
709.3485	-0.0073
709.529	0.0149
709.7095	-0.0067
709.8899	-0.0086
710.0703	0.024
710.2507	-0.0109
710.4311	-0.0293
710.6115	0.0035
710.7918	0.0141
710.9721	-0.0068
711.1524	-0.0119
711.3327	-0.0149
711.513	-0.0026
711.6932	0.0244
711.8735	0.0311
712.0537	0.0026
712.2339	0.0157
712.4141	0.0243
712.5942	-0.0031
712.7744	0.0122
712.9545	0.0131
713.1346	0.0311
713.3147	0.0167
713.4947	0.0001
713.6748	-0.0101
713.8548	0.0138
714.0348	0.0125
714.2148	0.0189
714.3948	0.0061
714.5748	0.0264
714.7547	-0.0012
714.9346	0.0317
715.1145	0.0177
715.2944	-0.0282
715.4743	0.0368
715.6541	0.0084
715.834	0.0224
716.0138	0.0093
716.1936	0.0109
716.3733	0.026
716.5531	-0.0014
716.7328	-0.008
716.9126	0.0266
717.0923	-0.0131
717.2719	0.0225
717.4516	0.0025
717.6312	-0.0104
717.8109	0.0293
717.9905	0.0186
718.1701	0.0154
718.3496	0.0033
718.5292	0.0062
718.7087	-0.0043
718.8882	0.0255
719.0677	0.0053
719.2472	-0.0017
719.4267	0.011
719.6061	-0.0187
719.7856	0.0309
719.965	0.0138
720.1443	-0.0049
720.3237	-0.0116
720.5031	0.022
720.6824	0.0055
720.8617	-0.0047
721.041	0.0315
721.2203	-0.0039
721.3995	0.0121
721.5788	-0.0038
721.758	-0.0237
721.9372	0.0017
722.1164	-0.0024
722.2956	0.0023
722.4747	-0.0042
722.6538	0.0232
722.8329	0.0244
723.012	0.0319
723.1911	0.0161
723.3702	0.0418
723.5492	0.0119
723.7282	0.0071
723.9072	0.0031
724.0862	0.0046
724.2652	-0.0079
724.4441	-0.0007
724.623	0.0189
724.8019	0.03
724.9808	0.0029
725.1597	0.0146
725.3385	0.009
725.5174	0.0146
725.6962	-0.005
725.875	0.0139
726.0538	0.0149
726.2325	0.0212
726.4112	-0.0043
726.59	-0.0169
726.7687	-0.0286
726.9474	0.0133
727.126	0.0124
727.3047	-0.0292
727.4833	0.0081
727.6619	-0.0326
727.8405	-0.0016
728.0191	0.0181
728.1976	0.0149
728.3762	0.0341
728.5547	-0.0096
728.7332	0.0227
728.9116	0.0097
729.0901	-0.0065
729.2686	0.008
729.447	-0.0012
729.6254	0.019
729.8038	0.0029
729.9821	-0.0043
730.1605	0.0121
730.3388	-0.0002
730.5171	0.0216
730.6954	0.0001
730.8737	0.0141
731.0519	-0.0127
731.2302	0.0151
731.4084	-0.0057
731.5866	-0.0227
731.7648	0.0172
731.9429	0.0239
732.1211	-0.0121
732.2992	0.013
732.4773	-0.0005
732.6554	-0.0108
732.8335	0.0137
733.0115	0.0038
733.1896	-0.0071
733.3676	0.0081
733.5456	0.0074
733.7235	0.0045
733.9015	-0.0034
734.0794	-0.0058
734.2574	0.0051
734.4353	0.0119
734.6131	-0.0057
734.791	-0.0091
734.9689	0.0081
735.1467	0.002
735.3245	0.0263
735.5023	-0.0005
735.68	0.0048
735.8578	0.042
736.0355	0.0073
736.2132	0.0081
736.3909	0.0252
736.5686	-0.0104
736.7463	-0.0024
736.9239	0.0413
737.1015	0.0078
737.2791	0.0273
737.4567	0.0109
737.6343	-0.0136
737.8118	0.0101
737.9894	0.0101
738.1669	0.0143
738.3444	0.0227
738.5218	-0.0245
738.6993	0.0203
738.8767	0.014
739.0541	-0.0049
739.2315	-0.0165
739.4089	0.0313
739.5863	-0.0081
739.7636	0.0199
739.9409	-0.0082
740.1182	-0.0234
740.2955	0.0068
740.4728	-0.0127
740.65	0.0129
740.8272	0.0101
741.0044	-0.0014
741.1816	0.0086
741.3588	0.0201
741.5359	0.0149
741.7131	0.0095
741.8902	0.0213
742.0673	-0.0165
742.2444	0.069
742.4214	0.0136
742.5985	0.0133
742.7755	0.0098
742.9525	-0.0164
743.1295	-0.0152
743.3064	-0.0013
743.4834	0.0247
743.6603	0.0369
743.8372	-0.0226
744.0141	0.0677
744.191	0.045
744.3678	-0.0268
744.5446	0.0011
744.7215	0.0206
744.8982	0.0223
745.075	0.048
745.2518	0.041
745.4285	0.0607
745.6052	-0.0297
745.7819	-0.0017
745.9586	0.0029
746.1353	-0.036
746.3119	0.0035
746.4885	0.0597
746.6651	0.0075
746.8417	-0.0107
747.0183	0.046
747.1948	-0.0088
747.3714	0.0073
747.5479	0.014
747.7244	0.0013
747.9008	-0.0059
748.0773	0.0454
748.2537	-0.002
748.4301	0.0371
748.6065	-0.0008
748.7829	-0.0218
748.9593	0.0005
749.1356	-0.019
749.3119	0.018
749.4882	0.0054
749.6645	0.0001
749.8408	0.021
750.017	0.0035
750.1933	-0.0347
750.3695	0.0014
750.5457	-0.0016
750.7218	0.016
750.898	0.0008
751.0741	0.0072
751.2502	0.0066
751.4263	0.0055
751.6024	-0.0034
751.7784	-0.0061
751.9545	-0.0108
752.1305	0.0016
752.3065	0.0176
752.4825	-0.0003
752.6584	0.0112
752.8344	0.0061
753.0103	-0.0123
753.1862	0.0312
753.3621	0.0077
753.5379	0.0092
753.7138	0.01
753.8896	0.0177
754.0654	-0.0125
754.2412	0.0106
754.417	0.0365
754.5927	0.0042
754.7685	0.0014
754.9442	0.0178
755.1199	0.0155
755.2956	0.0106
755.4712	0.007
755.6469	0.0091
755.8225	-0.0046
755.9981	0.0009
756.1736	0.0021
756.3492	0.0042
756.5248	-0.0013
756.7003	-0.0125
756.8758	0.0031
757.0513	0.008
757.2267	0.0077
757.4022	-0.0078
757.5776	0.013
757.753	0.0234
757.9284	0.003
758.1038	0.017
758.2791	0.0278
758.4545	-0.0099
758.6298	0.0033
758.8051	0.0156
758.9803	-0.0004
759.1556	-0.0145
759.3308	0.0014
759.506	0.0124
759.6812	0.01
759.8564	-0.0008
760.0316	0.006
760.2067	0.0229
760.3819	0.0059
760.557	-0.0074
760.732	0.0044
760.9071	0.0385
761.0821	-0.0117
761.2572	0.009
761.4322	0.04
761.6072	-0.0023
761.7821	-0.0313
761.9571	0.0114
762.132	0.02
762.3069	0.0231
762.4818	0.0066
762.6567	0.0031
762.8316	0.0032
763.0064	0.0051
763.1812	-0.0058
763.356	0.0012
763.5308	0.0232
763.7055	-0.0122
763.8803	-0.0016
764.055	-0.0009
764.2297	0.0031
764.4044	-0.0037
764.579	0.0031
764.7537	0.0129
764.9283	0.0186
765.1029	0.007
765.2775	-0.002
765.4521	0.0238
765.6266	-0.0036
765.8011	0.0202
765.9756	0.0231
766.1501	0.0151
766.3246	0.0215
766.4991	0.0274
766.6735	0.0304
766.8479	0.0088
767.0223	0.0431
767.1967	-0.011
767.371	0.0191
767.5454	0.046
767.7197	0.0333
767.894	0.0038
768.0683	0.042
768.2425	-0.0023
768.4168	0.0011
768.591	-0.0037
768.7652	-0.0036
768.9394	0.0143
769.1135	-0.0169
769.2877	0.0185
769.4618	0.03
769.6359	0.0001
769.81	0.0093
769.984	0.0043
770.1581	-0.0095
770.3321	0.0201
770.5061	0.0019
770.6801	0.015
770.8541	0.0043
771.028	0.0344
771.202	0.0224
771.3759	0.0167
771.5498	0.0133
771.7236	0.0006
771.8975	0.0188
772.0713	-0.0035
772.2451	-0.0037
772.4189	0.0283
772.5927	0.0017
772.7665	0.0007
772.9402	0.0135
773.1139	0.0352
773.2876	0.021
773.4613	0.0318
773.635	0.0324
773.8086	0.0528
773.9822	0.0274
774.1558	0.0368
774.3294	0.0183
774.503	-0.0107
774.6765	0.032
774.8501	-0.0018
775.0236	0.0477
775.1971	0.0033
775.3705	-0.0158
775.544	0.0188
775.7174	0.045
775.8908	0.0282
776.0642	-0.0038
776.2376	0.0629
776.4109	0.0241
776.5843	0.0029
776.7576	0.0346
776.9309	0.002
777.1041	-0.0188
777.2774	-0.0385
777.4506	0.0055
777.6238	-0.0092
777.797	0.0175
777.9702	-0.0063
778.1434	0.031
778.3165	-0.025
778.4896	-0.0391
778.6627	-0.0003
778.8358	0.0037
779.0089	-0.0237
779.1819	0.0325
779.3549	0.0149
779.5279	-0.0011
779.7009	0.0345
779.8739	0.0111
780.0468	-0.0137
780.2197	0.0235
780.3926	-0.024
780.5655	0.0232
780.7384	-0.0195
780.9112	0.0389
781.0841	0.002
781.2569	0.0065
781.4297	-0.0259
781.6024	0.0164
781.7752	0.0406
781.9479	0.0735
782.1206	0.0241
782.2933	0.0307
782.466	0.0293
782.6386	0.0013
782.8113	0.009
782.9839	-0.0039
783.1565	0.0292
783.329	0.0173
783.5016	-0.0088
783.6741	-0.0136
783.8466	0.0367
784.0191	0.017
784.1916	-0.0273
784.3641	-0.02
784.5365	0.036
784.7089	-0.0388
784.8813	0.0807
785.0537	0.0411
785.2261	0.0294
785.3984	0.0251
785.5707	-0.0042
785.743	0.0192
785.9153	-0.0136
786.0876	-0.0621
786.2598	0.0233
786.432	0.0375
786.6042	0.033
786.7764	-0.0305
786.9486	0.0079
787.1207	0.0471
787.2928	0.0435
787.4649	-0.0024
787.637	0.0189
787.8091	0.0432
787.9811	0.0328
788.1532	-0.0194
788.3252	0.015
788.4972	-0.0239
788.6691	0.0133
788.8411	0.0212
789.013	0.0008
789.1849	-0.0096
789.3568	-0.0235
789.5287	0.0604
789.7005	-0.0377
789.8723	0.0156
790.0442	-0.0076
790.2159	-0.0129
790.3877	0.0522
790.5595	0.0874
790.7312	-0.0144
790.9029	-0.0088
791.0746	0.0225
791.2463	-0.0633
791.4179	0.0276
791.5896	0.047
791.7612	0.0827
791.9328	0.0235
792.1044	-0.0098
792.2759	-0.0237
792.4474	0.0062
792.619	0.0015
792.7905	0.0004
792.9619	0.0462
793.1334	0.0517
793.3048	0.0508
793.4762	0.0157
793.6476	-0.0511
793.819	0.0069
793.9904	0.0284
794.1617	-0.0041
794.333	0.0204
794.5043	0.0423
794.6756	0.0013
794.8469	0.0285
795.0181	0.0195
795.1893	0.042
795.3605	0.0576
795.5317	0.0019
795.7029	-0.0006
795.874	-0.0071
796.0452	0.0265
796.2163	0.0958
796.3873	0.071
796.5584	-0.0152
796.7294	0.0595
796.9005	0.0843
797.0715	-0.043
797.2425	0.0882
797.4134	0.0822
797.5844	0.022
797.7553	-0.0531
797.9262	0.0737
798.0971	0.0282
798.2679	-0.0104
798.4388	0.0699
798.6096	0.045
798.7804	0.0229
798.9512	0.0244
799.122	0.0201
799.2927	0.0996
799.4635	0.0329
799.6342	-0.032
799.8049	0.0573
799.9755	0.0005
800.1462	0.0115
800.3168	0.0462
800.4874	-0.0493
800.658	0.0979
800.8286	0.031
800.9991	0.0182
801.1696	-0.025
801.3402	-0.0798
801.5106	-0.0452
801.6811	0.0006
801.8516	-0.0319
802.022	0.0279
802.1924	-0.0014
802.3628	-0.0278
802.5332	0.1025
802.7035	-0.0011
802.8739	-0.0221
803.0442	0.0607
803.2145	0.0933
803.3847	-0.0251
803.555	0.121
803.7252	-0.0185
803.8954	-0.0187
804.0656	0.0035
804.2358	-0.0668
804.4059	0.0099
804.5761	0.0615
804.7462	0.0093
804.9163	0.04
805.0864	-0.0503
805.2564	-0.0392
805.4264	-0.0551
805.5965	0.0311
805.7665	0.0082
805.9364	-0.059
806.1064	-0.0377
806.2763	0.0621
806.4462	-0.0034
806.6161	0.0695
806.786	-0.0296
806.9559	0.0676
807.1257	0.0116
807.2955	-0.0456
807.4653	0.0125
807.6351	0.0972
807.8048	0.0511
807.9746	0.0408
808.1443	0.0521
808.314	-0.0246
808.4837	0.1187
808.6533	0.0005
808.8229	0.0396
808.9926	0.0696
809.1622	0.0422
809.3317	-0.0574
809.5013	0.1057
809.6708	-0.0109
809.8403	0.0466
810.0098	0.0575
810.1793	-0.0014
810.3488	-0.0785
810.5182	0.1478
810.6876	0.1003
810.857	-0.0333
811.0264	-0.0189
811.1958	0.1338
811.3651	-0.0131
811.5344	0.0864
811.7037	0.0223
811.873	0.0753
812.0422	-0.1807
812.2115	-0.0175
812.3807	0.0954
812.5499	-0.0119
812.7191	-0.1019
812.8882	-0.1376
813.0574	0.0655
813.2265	0.0409
813.3956	0.0707
813.5646	0.0265
813.7337	0.0439
813.9027	-0.0916
814.0718	0.0387
814.2407	0.0038
814.4097	0.0644
814.5787	0.1422
814.7476	0.0005
814.9165	0.0589
815.0854	0.0321
815.2543	-0.0265
815.4232	0.0879
815.592	0.1059
815.7608	-0.0411
815.9296	-0.0874
816.0984	0.1562
816.2671	-0.2292
816.4359	0.0724
816.6046	-0.011
816.7733	-0.1677
816.942	-0.0948
817.1106	0.057
817.2793	0.0499
817.4479	0.0377
817.6165	0.076
817.785	0.0263
817.9536	-0.0671
818.1221	-0.0055
818.2906	0.0781
818.4591	0.0189
818.6276	0.0132
818.7961	-0.0146
818.9645	0.006
819.1329	0.1002
819.3013	-0.0721
819.4697	0.0186
819.638	0.0914
819.8064	0.0077
819.9747	-0.0213
820.143	-0.0683
820.3113	0.0042
820.4795	0.0655
820.6477	0.0101
820.816	-0.0015
820.9842	0.1961
821.1523	-0.0015
821.3205	0.0344
821.4886	-0.0694
821.6567	-0.0492
821.8248	0.1125
821.9929	-0.1192
822.1609	0.0253
822.329	0.0254
822.497	0.1126
822.665	-0.0704
822.833	-0.0485
823.0009	0.0012
823.1688	0.0804
823.3367	-0.1663
823.5046	0.0439
823.6725	-0.0426
823.8404	0.156
824.0082	0.0823
824.176	-0.068
824.3438	0.2511
824.5116	0.0011
824.6793	0.0409
824.847	0.0199
825.0147	0.275
825.1824	-0.0023
825.3501	0.3436
825.5177	0.061
825.6854	-0.1462
825.853	0.0732
826.0206	0.0159
826.1881	0.0809
826.3557	0.4328
826.5232	0.1054
826.6907	0.0668
826.8582	0.1602
827.0257	0.2346
827.1931	0.0568
827.3605	-0.0459
827.528	-0.0918
827.6953	-0.2586
827.8627	-0.0025
828.03	0.1148
828.1974	-0.0757
828.3647	0.0376
828.532	-0.0532
828.6992	0.194
828.8665	-0.1463
829.0337	-0.0279
829.2009	-0.018
829.3681	-0.0053
829.5352	-0.0746
829.7024	0.1103
829.8695	-0.01
830.0366	0.3163
830.2037	0.2117
830.3707	0.1299
830.5378	0.0487
830.7048	-0.0867
830.8718	0.1748
831.0388	-0.0191
831.2057	0.2469
831.3727	-0.3089
831.5396	0.2425
831.7065	-0.3569
831.8734	0.3915
832.0402	0.3076
832.2071	-0.1194
832.3739	-0.1347
832.5407	-1.5405
832.7075	-0.4796
832.8742	0.1778
833.041	0.1747
833.2077	0.2514
833.3744	0.1629
833.541	0.0158
833.7077	-0.1271
833.8743	0.2282
834.0409	0.0404
834.2075	0.0738
834.3741	-0.2369
834.5407	0.1118
834.7072	0.1891
834.8737	0.1732
835.0402	0.6618
835.2067	0.2457
835.3731	0.3591
835.5395	-0.0061
835.706	0.2445
835.8723	0.1744
836.0387	-0.1225
836.2051	0.1136
836.3714	0.1109
836.5377	1.1087
836.704	0.1215
836.8703	-0.1162
837.0365	-0.274
837.2027	0.9412
837.3689	0.1901
837.5351	0.3016
837.7013	-0.0351
837.8674	0.1315
838.0335	-0.1651
838.1997	0.3382
838.3657	-0
838.5318	-0.2276
838.6978	-0
838.8639	-0.432
839.0299	-0.0901
839.1958	0.2577
839.3618	0.062
839.5277	-0.0042
839.6937	0.0142
839.8596	-0.1097
840.0254	0.0028
840.1913	-0
840.3571	-0.1406
840.523	-1.549
840.6888	0.3826
840.8545	-0.2384
841.0203	0.2019
841.186	-0.1972
841.3517	-0.0499
841.5174	0.2518
841.6831	-0
841.8488	0.0201
842.0144	0.1406
842.18	0.7053
842.3456	-0.3025
842.5112	-0.8377
842.6767	0.048
842.8422	0.0346
843.0077	0.1109
843.1732	-0.4046
843.3387	-0.2881
843.5042	-0.1582
843.6696	-0.2363
843.835	-0.2113
844.0004	-0.1579
844.1657	-0
844.3311	0.0704
844.4964	-0
844.6617	1.6782
844.827	0.3985
844.9923	0.691
845.1575	-0
845.3227	-0
845.4879	-0.3438
845.6531	0.1063
845.8183	0.1063
845.9834	-0
846.1485	0.1075
846.3136	-0.1347
846.4787	-0
846.6438	-0.3458
846.8088	-0
846.9738	1.2632
847.1388	0.1521
847.3038	0.1847
847.4687	-0
847.6337	-0.4972
847.7986	0.1191
847.9635	-0.2623
848.1284	-0
848.2932	0.1511
848.458	-0
848.6228	0.7029
848.7876	-0
848.9524	-0.6014
849.1172	-1.6005
849.2819	1.2632
849.4466	0.2394
849.6113	-0
849.7759	-0
849.9406	-0.2255
850.1052	-0.8112
850.2698	-0
850.4344	-0.5555
850.599	-0
850.7635	-0
850.928	0.1299
851.0925	0.2826
851.257	0.3297
851.4215	-0.1604
851.5859	0.0387
851.7503	-0
851.9147	0.652
852.0791	0.0296
852.2434	0.4042
852.4078	0.0497
852.5721	0.9573
852.7364	-0.0171
852.9007	0.26
853.0649	0.0358
853.2291	1.0398
853.3934	-0.238
853.5575	0.0278
853.7217	0.0493
853.8859	-0
854.05	-0.5695
854.2141	1.4229
854.3782	-0.1859
854.5423	0.3286
854.7063	0.1464
854.8703	-0.1219
855.0343	-0.0057
855.1983	-0.1276
855.3623	-0.1216
855.5262	0.077
855.6901	1.1347
855.854	0.4645
856.0179	2.0427
856.1818	0.929
856.3456	0.4491
856.5094	-0.2202
856.6732	-0.2797
856.837	-1.4467
857.0008	-0
857.1645	1.8939
857.3282	-0.7068
857.4919	-0.0128
857.6556	-0.0823
857.8192	-0.1824
857.9828	-0.148
858.1465	0.3153
858.31	0.2992
858.4736	-0.4255
858.6372	-0.2116
858.8007	0.2544
858.9642	0.1687
859.1277	1.0422
859.2911	-0.4817
859.4546	-0
859.618	-0.0437
859.7814	-0.1705
859.9448	-0
860.1081	-0
860.2715	-0
860.4348	0.1988
860.5981	-0
860.7614	-0.5918
860.9246	0.1239
861.0879	0.7905
861.2511	-0
861.4143	-0
861.5774	0.0842
861.7406	0.0277
861.9037	-0.7249
862.0668	-0
862.2299	-0.0657
862.393	-0
862.556	-0.147
862.7191	-0.4817
862.8821	0.3014
863.0451	0.1903
863.208	-0
863.371	0.4218
863.5339	0.3816
863.6968	0.3239
863.8597	-0
864.0225	1.9156
864.1854	0.017
864.3482	-0.676
864.511	0.2086
864.6737	0.5536
864.8365	0.1127
864.9992	0.5934
865.1619	-0.2096
865.3246	-1.9685
865.4873	-0.615
865.65	0.0149
865.8126	0.2517
865.9752	-0.4305
866.1378	1.3687
866.3004	1.3592
866.4629	-1.6851
866.6254	-0
866.7879	0.2254
866.9504	-0
867.1129	-0.0974
867.2753	0.1784
867.4377	-0.1898
867.6001	-0.6518
867.7625	0.0504
867.9249	0.2316
868.0872	0.368
868.2495	-0
868.4118	0.8488
868.5741	0.2135
868.7363	-0
868.8986	-0.3241
869.0608	0.0585
869.223	-0.4263
869.3851	-0
869.5473	0.1693
869.7094	-0.2318
869.8715	-0.9264
870.0336	0.2264
870.1957	-0.8039
870.3577	0.0614
870.5197	0.0038
870.6817	-0.8074
870.8437	0.8788
871.0057	-0
871.1676	0.027
871.3295	-0
871.4914	-1.791
871.6533	-0
871.8151	-0
871.977	-0
872.1388	-0.4582
872.3006	-0.2276
872.4623	1.4205
872.6241	-0
872.7858	-0.1299
872.9475	-0
873.1092	0.0363
873.2709	0.3868
873.4325	-1.6694
873.5941	0.1597
873.7557	-0
873.9173	0.0688
874.0789	0.8513
874.2404	-0
874.4019	0.272
874.5634	-0
874.7249	-0
874.8863	-0.2608
875.0478	-0.2448
875.2092	-0
875.3706	-0.0029
875.5319	-0
875.6933	-0
875.8546	-0
876.0159	-0.0552
876.1772	-0.1066
876.3385	-0
876.4997	-0
876.6609	-0
876.8221	-0
876.9833	0.3192
877.1445	0.1558
877.3056	-0.308
877.4667	-0
877.6278	-0
877.7889	-0
877.9499	0.5965
878.111	-0.5196
878.272	-0
878.433	-0
878.5939	0.4245
878.7549	0.081
878.9158	0.1924
879.0767	0.2312
879.2376	0.0117
879.3984	-0
879.5593	0.5994
879.7201	-0
879.8809	-0
880.0417	-0.397
880.2024	-0
880.3632	-0
880.5239	0.8711
880.6846	-0
880.8452	0.0807
881.0059	-0
881.1665	-0.1535
881.3271	0.5766
881.4877	-0
881.6483	-1.2244
881.8088	-0
881.9693	-0
882.1298	-0
882.2903	-0
