Data from D4ACN5uM440nmA_Absorbance_13-50-24-653.txt Node
Date: Fri Feb 21 13:50:24 GMT 2025
User: LASERRRRR
Spectrometer: FLMT03099
Trigger mode: 0
Integration Time (sec): 1.500000E-2
Scans to average: 1
Electric dark correction enabled: true
Nonlinearity correction enabled: false
Boxcar width: 0
XAxis mode: Wavelengths
Number of Pixels in Spectrum: 3648
>>>>>Begin Spectral Data<<<<<
179.3399	-0.5568
179.5586	-0.5568
179.7771	-0.5568
179.9957	-0.3427
180.2143	-0.757
180.4329	-0.2492
180.6514	-0
180.8699	0.433
181.0885	-0
181.307	0.3883
181.5255	0.0773
181.744	-0
181.9625	0.5218
182.181	-0
182.3994	-0.3243
182.6179	-0
182.8363	-0
183.0547	-0.3271
183.2732	0.2091
183.4916	0.055
183.71	0.1807
183.9284	-0.045
184.1467	0.2621
184.3651	0.0706
184.5835	0.0755
184.8018	-0.0028
185.0201	0.1177
185.2385	0.1315
185.4568	0.1747
185.6751	0.2211
185.8934	0.2219
186.1117	-0.0155
186.3299	0.1839
186.5482	0.1518
186.7664	-0.0504
186.9847	-0.0832
187.2029	0.2681
187.4211	-0.1219
187.6393	-0.0118
187.8575	0.1458
188.0757	0.4829
188.2939	0.2168
188.512	0.3008
188.7302	0.137
188.9483	0.3471
189.1665	0.5884
189.3846	0.0073
189.6027	0.1427
189.8208	0.1369
190.0389	0.2536
190.257	0.0105
190.475	-0.0029
190.6931	0.3042
190.9111	0.2206
191.1292	0.0706
191.3472	0.095
191.5652	0.1243
191.7832	0.2187
192.0012	0.0502
192.2192	0.2101
192.4371	0.1557
192.6551	0.2594
192.873	0.139
193.091	0.1771
193.3089	0.2191
193.5268	0.1482
193.7447	0.1942
193.9626	0.1873
194.1805	0.2253
194.3984	0.2306
194.6162	0.243
194.8341	0.2232
195.0519	0.2411
195.2697	0.3043
195.4875	0.4431
195.7054	0.2932
195.9231	0.238
196.1409	0.3746
196.3587	0.2814
196.5765	0.3588
196.7942	0.2715
197.012	0.3311
197.2297	0.309
197.4474	0.3769
197.6651	0.3338
197.8828	0.3552
198.1005	0.4336
198.3182	0.3479
198.5358	0.3533
198.7535	0.3289
198.9711	0.3869
199.1888	0.391
199.4064	0.4046
199.624	0.3997
199.8416	0.3698
200.0592	0.4224
200.2767	0.3794
200.4943	0.4145
200.7119	0.3818
200.9294	0.4079
201.1469	0.4394
201.3645	0.4659
201.582	0.3684
201.7995	0.4099
202.017	0.4225
202.2344	0.4164
202.4519	0.3863
202.6694	0.3762
202.8868	0.4127
203.1042	0.4191
203.3217	0.3839
203.5391	0.3698
203.7565	0.3932
203.9739	0.3811
204.1913	0.3677
204.4086	0.3393
204.626	0.3693
204.8433	0.3509
205.0607	0.3731
205.278	0.3694
205.4953	0.3322
205.7126	0.3333
205.9299	0.3129
206.1472	0.3312
206.3644	0.347
206.5817	0.3342
206.7989	0.347
207.0162	0.32
207.2334	0.3368
207.4506	0.2896
207.6678	0.3067
207.885	0.3266
208.1022	0.3014
208.3194	0.2734
208.5365	0.2995
208.7537	0.2834
208.9708	0.3142
209.1879	0.2806
209.405	0.2909
209.6222	0.2818
209.8392	0.2951
210.0563	0.297
210.2734	0.261
210.4905	0.258
210.7075	0.2781
210.9245	0.2673
211.1416	0.2675
211.3586	0.2829
211.5756	0.2456
211.7926	0.2724
212.0096	0.2532
212.2265	0.2649
212.4435	0.2437
212.6604	0.2436
212.8774	0.2433
213.0943	0.2526
213.3112	0.2621
213.5281	0.2453
213.745	0.2439
213.9619	0.226
214.1788	0.2644
214.3956	0.2501
214.6125	0.2674
214.8293	0.2496
215.0461	0.263
215.2629	0.2502
215.4798	0.2581
215.6965	0.2605
215.9133	0.2474
216.1301	0.2436
216.3469	0.2426
216.5636	0.2501
216.7803	0.2509
216.9971	0.2413
217.2138	0.2537
217.4305	0.2553
217.6472	0.2377
217.8639	0.2603
218.0805	0.2667
218.2972	0.2417
218.5138	0.2527
218.7305	0.2487
218.9471	0.2395
219.1637	0.2568
219.3803	0.2526
219.5969	0.261
219.8135	0.2585
220.0301	0.2522
220.2466	0.2615
220.4632	0.2635
220.6797	0.256
220.8962	0.2595
221.1127	0.2706
221.3292	0.2675
221.5457	0.2637
221.7622	0.268
221.9787	0.2905
222.1951	0.2666
222.4116	0.2737
222.628	0.2759
222.8444	0.275
223.0608	0.2722
223.2772	0.2955
223.4936	0.2829
223.71	0.2862
223.9264	0.2806
224.1427	0.2783
224.3591	0.2837
224.5754	0.2865
224.7917	0.2972
225.008	0.2882
225.2243	0.3046
225.4406	0.2973
225.6569	0.3058
225.8732	0.3165
226.0894	0.3076
226.3057	0.3149
226.5219	0.3143
226.7381	0.322
226.9543	0.31
227.1705	0.3172
227.3867	0.3223
227.6029	0.3245
227.8191	0.3314
228.0352	0.3393
228.2513	0.3542
228.4675	0.3448
228.6836	0.3494
228.8997	0.3488
229.1158	0.3585
229.3319	0.3561
229.548	0.3465
229.764	0.361
229.9801	0.365
230.1961	0.3711
230.4121	0.379
230.6282	0.3781
230.8442	0.3897
231.0602	0.3933
231.2761	0.3811
231.4921	0.3872
231.7081	0.3974
231.924	0.397
232.14	0.4096
232.3559	0.3981
232.5718	0.4109
232.7877	0.4109
233.0036	0.4028
233.2195	0.4089
233.4353	0.4189
233.6512	0.414
233.867	0.4288
234.0829	0.4242
234.2987	0.4295
234.5145	0.4323
234.7303	0.4324
234.9461	0.4286
235.1619	0.4353
235.3776	0.4329
235.5934	0.4235
235.8091	0.4483
236.0249	0.4358
236.2406	0.4495
236.4563	0.4495
236.672	0.4386
236.8877	0.4447
237.1034	0.4416
237.319	0.4469
237.5347	0.4568
237.7503	0.4483
237.966	0.4555
238.1816	0.4555
238.3972	0.4556
238.6128	0.4615
238.8284	0.4584
239.0439	0.4577
239.2595	0.4664
239.475	0.459
239.6906	0.4594
239.9061	0.4582
240.1216	0.46
240.3371	0.459
240.5526	0.4588
240.7681	0.4609
240.9836	0.4579
241.199	0.4489
241.4145	0.4522
241.6299	0.4508
241.8453	0.4359
242.0607	0.4383
242.2761	0.4253
242.4915	0.4198
242.7069	0.4158
242.9223	0.4155
243.1376	0.4038
243.353	0.3993
243.5683	0.394
243.7836	0.384
243.9989	0.376
244.2142	0.3748
244.4295	0.3728
244.6448	0.3608
244.86	0.356
245.0753	0.3413
245.2905	0.3424
245.5057	0.3287
245.721	0.3294
245.9362	0.3187
246.1514	0.3137
246.3665	0.3049
246.5817	0.2994
246.7969	0.2982
247.012	0.2946
247.2271	0.2868
247.4423	0.2752
247.6574	0.2776
247.8725	0.2738
248.0876	0.2651
248.3026	0.2647
248.5177	0.2554
248.7328	0.2484
248.9478	0.2545
249.1628	0.2488
249.3779	0.2338
249.5929	0.235
249.8079	0.2374
250.0228	0.2338
250.2378	0.2277
250.4528	0.2281
250.6677	0.2214
250.8827	0.2174
251.0976	0.2185
251.3125	0.2182
251.5274	0.2128
251.7423	0.2106
251.9572	0.2107
252.172	0.2058
252.3869	0.2072
252.6017	0.2038
252.8166	0.1994
253.0314	0.1973
253.2462	0.1962
253.461	0.1915
253.6758	0.1953
253.8906	0.1967
254.1053	0.1952
254.3201	0.1941
254.5348	0.1849
254.7496	0.1854
254.9643	0.1925
255.179	0.1841
255.3937	0.1877
255.6083	0.1855
255.823	0.1817
256.0377	0.1792
256.2523	0.1761
256.467	0.1858
256.6816	0.1843
256.8962	0.1828
257.1108	0.1841
257.3254	0.1798
257.54	0.1802
257.7545	0.1822
257.9691	0.1822
258.1836	0.17
258.3981	0.1815
258.6127	0.1703
258.8272	0.1808
259.0417	0.1683
259.2561	0.1742
259.4706	0.1726
259.6851	0.1766
259.8995	0.1751
260.114	0.1705
260.3284	0.1747
260.5428	0.1777
260.7572	0.1741
260.9716	0.1818
261.186	0.1747
261.4003	0.1739
261.6147	0.172
261.829	0.1708
262.0433	0.1783
262.2577	0.1784
262.472	0.1715
262.6863	0.1824
262.9005	0.1704
263.1148	0.1755
263.3291	0.1709
263.5433	0.1782
263.7576	0.1771
263.9718	0.1789
264.186	0.1758
264.4002	0.1782
264.6144	0.1858
264.8286	0.1823
265.0427	0.182
265.2569	0.181
265.471	0.1777
265.6851	0.1798
265.8993	0.1747
266.1134	0.1797
266.3275	0.175
266.5415	0.1843
266.7556	0.1829
266.9697	0.179
267.1837	0.1788
267.3978	0.1763
267.6118	0.1723
267.8258	0.1776
268.0398	0.1733
268.2538	0.1822
268.4677	0.1709
268.6817	0.1765
268.8957	0.1667
269.1096	0.168
269.3235	0.1713
269.5374	0.1734
269.7514	0.1827
269.9652	0.1749
270.1791	0.1714
270.393	0.1726
270.6068	0.1663
270.8207	0.1655
271.0345	0.1704
271.2483	0.1569
271.4622	0.1747
271.676	0.171
271.8897	0.1699
272.1035	0.1757
272.3173	0.1669
272.531	0.1664
272.7448	0.163
272.9585	0.1589
273.1722	0.1648
273.3859	0.1646
273.5996	0.1684
273.8133	0.1717
274.0269	0.1673
274.2406	0.1706
274.4542	0.1685
274.6679	0.1692
274.8815	0.1745
275.0951	0.1717
275.3087	0.1697
275.5223	0.169
275.7358	0.1725
275.9494	0.1728
276.1629	0.1722
276.3765	0.1701
276.59	0.1643
276.8035	0.1682
277.017	0.1729
277.2305	0.1779
277.444	0.1737
277.6574	0.1732
277.8709	0.1799
278.0843	0.175
278.2978	0.1751
278.5112	0.1763
278.7246	0.1732
278.938	0.1749
279.1513	0.1765
279.3647	0.1726
279.5781	0.1777
279.7914	0.1756
280.0047	0.1789
280.2181	0.1732
280.4314	0.1752
280.6447	0.1835
280.8579	0.1698
281.0712	0.1783
281.2845	0.1799
281.4977	0.1809
281.711	0.1773
281.9242	0.1786
282.1374	0.177
282.3506	0.1779
282.5638	0.1757
282.7769	0.1787
282.9901	0.1783
283.2033	0.1837
283.4164	0.1793
283.6295	0.1767
283.8426	0.1781
284.0557	0.1829
284.2688	0.1812
284.4819	0.1779
284.695	0.1828
284.908	0.1781
285.1211	0.1879
285.3341	0.1805
285.5471	0.1873
285.7601	0.1871
285.9731	0.1827
286.1861	0.186
286.3991	0.1872
286.612	0.1886
286.825	0.1867
287.0379	0.1862
287.2508	0.1881
287.4637	0.1888
287.6766	0.1857
287.8895	0.1873
288.1024	0.1913
288.3152	0.1918
288.5281	0.1847
288.7409	0.187
288.9538	0.1891
289.1666	0.1859
289.3794	0.1887
289.5922	0.185
289.8049	0.1897
290.0177	0.1921
290.2304	0.1901
290.4432	0.1943
290.6559	0.198
290.8686	0.1959
291.0813	0.1976
291.294	0.1953
291.5067	0.1899
291.7194	0.1896
291.932	0.1863
292.1447	0.1931
292.3573	0.197
292.5699	0.1967
292.7825	0.1931
292.9951	0.1932
293.2077	0.1901
293.4203	0.1945
293.6328	0.1936
293.8454	0.1977
294.0579	0.1911
294.2704	0.1967
294.4829	0.1957
294.6954	0.1929
294.9079	0.1924
295.1204	0.1889
295.3328	0.2
295.5453	0.1984
295.7577	0.1935
295.9701	0.197
296.1825	0.196
296.3949	0.19
296.6073	0.1892
296.8197	0.1938
297.0321	0.1982
297.2444	0.1934
297.4567	0.1973
297.6691	0.1928
297.8814	0.1922
298.0937	0.1948
298.306	0.1941
298.5182	0.1992
298.7305	0.1967
298.9428	0.1914
299.155	0.1878
299.3672	0.197
299.5794	0.1947
299.7916	0.1927
300.0038	0.1912
300.216	0.1912
300.4282	0.1942
300.6403	0.1995
300.8525	0.1969
301.0646	0.1957
301.2767	0.1972
301.4888	0.1958
301.7009	0.1945
301.913	0.1945
302.125	0.1954
302.3371	0.1902
302.5491	0.1932
302.7612	0.1984
302.9732	0.1944
303.1852	0.1944
303.3972	0.1971
303.6092	0.1964
303.8211	0.1917
304.0331	0.1922
304.245	0.1949
304.457	0.1926
304.6689	0.1898
304.8808	0.192
305.0927	0.1905
305.3046	0.1833
305.5164	0.1827
305.7283	0.1834
305.9401	0.1784
306.152	0.1828
306.3638	0.178
306.5756	0.1851
306.7874	0.1787
306.9992	0.1769
307.2109	0.1734
307.4227	0.1688
307.6344	0.1739
307.8462	0.1705
308.0579	0.17
308.2696	0.1675
308.4813	0.1659
308.693	0.1631
308.9046	0.1658
309.1163	0.1595
309.328	0.1547
309.5396	0.1523
309.7512	0.1576
309.9628	0.1521
310.1744	0.151
310.386	0.1451
310.5976	0.1472
310.8091	0.1442
311.0207	0.1477
311.2322	0.1457
311.4437	0.1413
311.6552	0.1458
311.8667	0.1504
312.0782	0.1399
312.2897	0.1423
312.5012	0.1398
312.7126	0.1349
312.924	0.1354
313.1355	0.1359
313.3469	0.1306
313.5583	0.138
313.7696	0.1286
313.981	0.1377
314.1924	0.128
314.4037	0.1317
314.6151	0.1253
314.8264	0.1296
315.0377	0.1292
315.249	0.1299
315.4603	0.1266
315.6716	0.1354
315.8828	0.1232
316.0941	0.1272
316.3053	0.1245
316.5165	0.1286
316.7277	0.1244
316.9389	0.1301
317.1501	0.1208
317.3613	0.1197
317.5724	0.1228
317.7836	0.1187
317.9947	0.1206
318.2058	0.1163
318.417	0.1234
318.6281	0.1185
318.8391	0.1218
319.0502	0.1235
319.2613	0.1176
319.4723	0.1165
319.6834	0.1209
319.8944	0.1198
320.1054	0.1199
320.3164	0.1168
320.5274	0.1234
320.7383	0.1226
320.9493	0.12
321.1602	0.1163
321.3712	0.1188
321.5821	0.1125
321.793	0.1254
322.0039	0.1196
322.2148	0.1258
322.4257	0.1137
322.6365	0.1218
322.8474	0.1199
323.0582	0.1214
323.269	0.1244
323.4798	0.124
323.6906	0.1189
323.9014	0.1186
324.1122	0.119
324.3229	0.1241
324.5337	0.1232
324.7444	0.1232
324.9551	0.1233
325.1658	0.119
325.3765	0.1285
325.5872	0.1254
325.7979	0.1241
326.0085	0.1225
326.2192	0.1258
326.4298	0.1268
326.6404	0.1313
326.851	0.1229
327.0616	0.1309
327.2722	0.1273
327.4828	0.1243
327.6933	0.1349
327.9039	0.1215
328.1144	0.1239
328.3249	0.1241
328.5354	0.1255
328.7459	0.1265
328.9564	0.1236
329.1669	0.1362
329.3773	0.1289
329.5878	0.131
329.7982	0.1314
330.0086	0.129
330.219	0.1237
330.4294	0.1335
330.6398	0.1304
330.8502	0.1322
331.0605	0.1305
331.2708	0.1226
331.4812	0.1329
331.6915	0.1301
331.9018	0.127
332.1121	0.1306
332.3224	0.1287
332.5326	0.1261
332.7429	0.1291
332.9531	0.1363
333.1633	0.1305
333.3735	0.1257
333.5837	0.1391
333.7939	0.1303
334.0041	0.1381
334.2143	0.1326
334.4244	0.1356
334.6346	0.1283
334.8447	0.1275
335.0548	0.137
335.2649	0.1332
335.475	0.1303
335.685	0.135
335.8951	0.1294
336.1051	0.1388
336.3152	0.1308
336.5252	0.131
336.7352	0.1375
336.9452	0.135
337.1552	0.1364
337.3652	0.1321
337.5751	0.1324
337.7851	0.1351
337.995	0.1385
338.2049	0.1355
338.4148	0.1361
338.6247	0.1371
338.8346	0.1382
339.0445	0.1357
339.2543	0.1355
339.4642	0.1374
339.674	0.1325
339.8838	0.1323
340.0936	0.1374
340.3034	0.1391
340.5132	0.1375
340.7229	0.145
340.9327	0.1508
341.1424	0.1381
341.3522	0.1403
341.5619	0.1476
341.7716	0.1481
341.9813	0.146
342.1909	0.1463
342.4006	0.1454
342.6102	0.1414
342.8199	0.1504
343.0295	0.1393
343.2391	0.1422
343.4487	0.1471
343.6583	0.1558
343.8679	0.149
344.0774	0.1438
344.287	0.1547
344.4965	0.1537
344.706	0.1553
344.9155	0.1457
345.125	0.1503
345.3345	0.1617
345.544	0.1601
345.7534	0.1618
345.9629	0.1524
346.1723	0.1592
346.3817	0.1557
346.5911	0.1577
346.8005	0.1646
347.0099	0.156
347.2193	0.1639
347.4286	0.1654
347.638	0.1661
347.8473	0.1626
348.0566	0.1648
348.2659	0.1667
348.4752	0.1616
348.6845	0.1682
348.8937	0.1609
349.103	0.1686
349.3122	0.1584
349.5214	0.1636
349.7306	0.1798
349.9398	0.1661
350.149	0.1653
350.3582	0.1661
350.5674	0.1712
350.7765	0.1665
350.9856	0.1707
351.1948	0.1727
351.4039	0.1734
351.613	0.1708
351.822	0.1755
352.0311	0.1688
352.2402	0.1793
352.4492	0.1811
352.6582	0.1751
352.8672	0.175
353.0762	0.1792
353.2852	0.1765
353.4942	0.1781
353.7032	0.1754
353.9121	0.1805
354.1211	0.1818
354.33	0.1822
354.5389	0.1791
354.7478	0.1798
354.9567	0.1785
355.1655	0.1791
355.3744	0.1759
355.5833	0.1821
355.7921	0.1898
356.0009	0.1905
356.2097	0.1823
356.4185	0.1829
356.6273	0.1947
356.8361	0.1891
357.0448	0.1927
357.2536	0.1869
357.4623	0.1884
357.671	0.1898
357.8797	0.1929
358.0884	0.1913
358.2971	0.1897
358.5057	0.1972
358.7144	0.1961
358.923	0.2048
359.1316	0.2007
359.3402	0.2056
359.5488	0.1967
359.7574	0.2042
359.966	0.2019
360.1746	0.1927
360.3831	0.2063
360.5916	0.2058
360.8002	0.214
361.0087	0.2029
361.2172	0.2095
361.4256	0.2105
361.6341	0.2146
361.8426	0.2091
362.051	0.2096
362.2594	0.2093
362.4678	0.2148
362.6762	0.2158
362.8846	0.2197
363.093	0.2208
363.3014	0.2166
363.5097	0.2171
363.718	0.2255
363.9264	0.2195
364.1347	0.2221
364.343	0.2281
364.5513	0.2192
364.7595	0.2272
364.9678	0.2288
365.176	0.2338
365.3842	0.2315
365.5925	0.2297
365.8007	0.2346
366.0089	0.2388
366.217	0.2343
366.4252	0.2336
366.6333	0.2367
366.8415	0.2449
367.0496	0.2347
367.2577	0.2417
367.4658	0.2307
367.6739	0.2423
367.882	0.2471
368.09	0.2391
368.2981	0.249
368.5061	0.2461
368.7141	0.2388
368.9221	0.2609
369.1301	0.2406
369.3381	0.2514
369.5461	0.2476
369.754	0.2571
369.962	0.2499
370.1699	0.2555
370.3778	0.2638
370.5857	0.2597
370.7936	0.2579
371.0015	0.2516
371.2093	0.2537
371.4172	0.2559
371.625	0.2563
371.8328	0.2576
372.0406	0.2633
372.2484	0.262
372.4562	0.2641
372.664	0.2656
372.8717	0.2627
373.0795	0.267
373.2872	0.273
373.4949	0.2631
373.7026	0.268
373.9103	0.2601
374.118	0.2682
374.3256	0.2698
374.5333	0.2705
374.7409	0.2714
374.9485	0.2743
375.1561	0.2792
375.3637	0.2723
375.5713	0.2805
375.7789	0.2769
375.9864	0.2803
376.194	0.2864
376.4015	0.2786
376.609	0.2813
376.8165	0.2851
377.024	0.2874
377.2315	0.2902
377.4389	0.2789
377.6464	0.2841
377.8538	0.2869
378.0612	0.2888
378.2686	0.2868
378.476	0.2942
378.6834	0.2836
378.8908	0.2974
379.0981	0.2869
379.3055	0.2879
379.5128	0.2883
379.7201	0.2906
379.9274	0.2943
380.1347	0.2898
380.342	0.3083
380.5492	0.2973
380.7565	0.2858
380.9637	0.2912
381.1709	0.302
381.3781	0.2993
381.5853	0.2959
381.7925	0.2916
381.9997	0.3075
382.2068	0.2985
382.4139	0.2963
382.6211	0.3115
382.8282	0.319
383.0353	0.3004
383.2424	0.3031
383.4494	0.2969
383.6565	0.3047
383.8635	0.2979
384.0706	0.305
384.2776	0.305
384.4846	0.3076
384.6916	0.313
384.8986	0.3089
385.1055	0.3183
385.3125	0.3143
385.5194	0.3153
385.7263	0.3121
385.9333	0.3114
386.1402	0.3095
386.347	0.3092
386.5539	0.3115
386.7608	0.3023
386.9676	0.3087
387.1744	0.3083
387.3813	0.3041
387.5881	0.3064
387.7948	0.3189
388.0016	0.3196
388.2084	0.3138
388.4151	0.3132
388.6219	0.3069
388.8286	0.3057
389.0353	0.3129
389.242	0.3099
389.4487	0.3051
389.6553	0.3016
389.862	0.3049
390.0686	0.3079
390.2753	0.3036
390.4819	0.2955
390.6885	0.3001
390.8951	0.3019
391.1016	0.2921
391.3082	0.3033
391.5147	0.3007
391.7213	0.2969
391.9278	0.2903
392.1343	0.3035
392.3408	0.2885
392.5473	0.2927
392.7537	0.2912
392.9602	0.2859
393.1666	0.2882
393.373	0.2878
393.5794	0.2821
393.7858	0.2816
393.9922	0.28
394.1986	0.2712
394.4049	0.2808
394.6113	0.2768
394.8176	0.2812
395.0239	0.2773
395.2302	0.2827
395.4365	0.2782
395.6428	0.2751
395.8491	0.2701
396.0553	0.2657
396.2615	0.2782
396.4678	0.2729
396.674	0.2688
396.8802	0.2671
397.0863	0.2744
397.2925	0.2658
397.4987	0.2703
397.7048	0.2735
397.9109	0.2649
398.117	0.2606
398.3231	0.2642
398.5292	0.2617
398.7353	0.276
398.9413	0.2625
399.1474	0.2518
399.3534	0.2587
399.5594	0.2667
399.7654	0.2569
399.9714	0.2691
400.1774	0.2665
400.3833	0.261
400.5893	0.2609
400.7952	0.2691
401.0011	0.2574
401.207	0.2643
401.4129	0.2596
401.6188	0.2605
401.8247	0.2673
402.0305	0.2555
402.2364	0.2628
402.4422	0.2665
402.648	0.2697
402.8538	0.2607
403.0596	0.2598
403.2654	0.2562
403.4711	0.2618
403.6768	0.254
403.8826	0.266
404.0883	0.2559
404.294	0.2675
404.4997	0.2686
404.7054	0.2733
404.911	0.2587
405.1167	0.2657
405.3223	0.2532
405.5279	0.2584
405.7335	0.2686
405.9391	0.2562
406.1447	0.2715
406.3502	0.2606
406.5558	0.2615
406.7613	0.2655
406.9668	0.2638
407.1724	0.2575
407.3778	0.2601
407.5833	0.2443
407.7888	0.2656
407.9942	0.2568
408.1997	0.2582
408.4051	0.2647
408.6105	0.2636
408.8159	0.2637
409.0213	0.2585
409.2267	0.265
409.432	0.254
409.6374	0.2628
409.8427	0.2671
410.048	0.2676
410.2533	0.2569
410.4586	0.2541
410.6639	0.2652
410.8691	0.2507
411.0744	0.2655
411.2796	0.2659
411.4848	0.2741
411.69	0.2542
411.8952	0.267
412.1004	0.2561
412.3056	0.256
412.5107	0.2715
412.7158	0.2688
412.921	0.2709
413.1261	0.2654
413.3312	0.2584
413.5362	0.2673
413.7413	0.2607
413.9464	0.2468
414.1514	0.2556
414.3564	0.2516
414.5614	0.2529
414.7664	0.2527
414.9714	0.2564
415.1764	0.2572
415.3813	0.2468
415.5863	0.2571
415.7912	0.2526
415.9961	0.2483
416.201	0.2632
416.4059	0.2524
416.6108	0.2605
416.8156	0.26
417.0205	0.2629
417.2253	0.2552
417.4301	0.2526
417.6349	0.2544
417.8397	0.2463
418.0445	0.2476
418.2492	0.2465
418.454	0.2556
418.6587	0.2494
418.8634	0.2561
419.0681	0.2547
419.2728	0.2491
419.4775	0.2577
419.6822	0.2464
419.8868	0.2434
420.0915	0.248
420.2961	0.2391
420.5007	0.2499
420.7053	0.2402
420.9099	0.2405
421.1144	0.2365
421.319	0.242
421.5235	0.2388
421.728	0.2398
421.9325	0.2426
422.137	0.2357
422.3415	0.2349
422.546	0.235
422.7504	0.2321
422.9549	0.2392
423.1593	0.2304
423.3637	0.2376
423.5681	0.2359
423.7725	0.2346
423.9769	0.2284
424.1812	0.2241
424.3856	0.2232
424.5899	0.2398
424.7942	0.2362
424.9985	0.2254
425.2028	0.2417
425.4071	0.2287
425.6113	0.2212
425.8156	0.2227
426.0198	0.2261
426.224	0.218
426.4282	0.2218
426.6324	0.2257
426.8366	0.2136
427.0407	0.2192
427.2449	0.2151
427.449	0.2139
427.6531	0.2332
427.8572	0.2095
428.0613	0.2169
428.2654	0.2137
428.4694	0.198
428.6735	0.2025
428.8775	0.1997
429.0815	0.1955
429.2855	0.2043
429.4895	0.1998
429.6935	0.2036
429.8975	0.1905
430.1014	0.2026
430.3053	0.2023
430.5093	0.1871
430.7132	0.1924
430.9171	0.1915
431.1209	0.1901
431.3248	0.1805
431.5286	0.1924
431.7325	0.1891
431.9363	0.1742
432.1401	0.1755
432.3439	0.1754
432.5477	0.1669
432.7514	0.1776
432.9552	0.174
433.1589	0.1687
433.3627	0.1762
433.5664	0.1704
433.7701	0.1655
433.9737	0.1766
434.1774	0.163
434.3811	0.1557
434.5847	0.1639
434.7883	0.1688
434.9919	0.1567
435.1955	0.1565
435.3991	0.1565
435.6027	0.1428
435.8062	0.1552
436.0098	0.1423
436.2133	0.1432
436.4168	0.1424
436.6203	0.1445
436.8238	0.1387
437.0272	0.1392
437.2307	0.1362
437.4341	0.1345
437.6375	0.1323
437.841	0.1268
438.0443	0.13
438.2477	0.1219
438.4511	0.1257
438.6545	0.128
438.8578	0.1193
439.0611	0.1305
439.2644	0.1297
439.4677	0.1246
439.671	0.1085
439.8743	0.1128
440.0775	0.1149
440.2808	0.1092
440.484	0.1096
440.6872	0.1164
440.8904	0.1031
441.0936	0.1072
441.2967	0.0936
441.4999	0.0989
441.703	0.0985
441.9062	0.1097
442.1093	0.1087
442.3124	0.096
442.5155	0.0984
442.7185	0.082
442.9216	0.0901
443.1246	0.0879
443.3276	0.0908
443.5307	0.0798
443.7337	0.088
443.9366	0.0878
444.1396	0.0823
444.3426	0.0781
444.5455	0.0763
444.7484	0.0821
444.9513	0.0849
445.1542	0.0818
445.3571	0.08
445.56	0.0663
445.7628	0.0706
445.9657	0.0701
446.1685	0.0711
446.3713	0.0693
446.5741	0.0733
446.7769	0.0717
446.9797	0.065
447.1824	0.0621
447.3852	0.0499
447.5879	0.0598
447.7906	0.0636
447.9933	0.0591
448.196	0.0549
448.3986	0.0594
448.6013	0.0512
448.8039	0.0629
449.0066	0.0653
449.2092	0.0623
449.4118	0.0577
449.6143	0.0574
449.8169	0.0495
450.0195	0.0501
450.222	0.0523
450.4245	0.0537
450.627	0.0431
450.8295	0.0509
451.032	0.0438
451.2345	0.0432
451.4369	0.0471
451.6394	0.0462
451.8418	0.0414
452.0442	0.0453
452.2466	0.0311
452.449	0.0441
452.6513	0.0432
452.8537	0.0323
453.056	0.0281
453.2583	0.0408
453.4607	0.0305
453.663	0.0298
453.8652	0.0272
454.0675	0.036
454.2697	0.0392
454.472	0.0257
454.6742	0.0346
454.8764	0.039
455.0786	0.028
455.2808	0.0182
455.4829	0.035
455.6851	0.0359
455.8872	0.0219
456.0893	0.0319
456.2915	0.0213
456.4935	0.0372
456.6956	0.0197
456.8977	0.0278
457.0997	0.0316
457.3018	0.0221
457.5038	0.0297
457.7058	0.0276
457.9078	0.0234
458.1098	0.0249
458.3117	0.0282
458.5137	0.0072
458.7156	0.0247
458.9175	0.0246
459.1194	0.0245
459.3213	0.018
459.5232	0.0223
459.725	0.0224
459.9269	0.0203
460.1287	0.0096
460.3305	0.0232
460.5323	0.0164
460.7341	0.0197
460.9359	0.0115
461.1376	0.0187
461.3394	0.0119
461.5411	0.0289
461.7428	0.0211
461.9445	0.0166
462.1462	0.0116
462.3479	0.0123
462.5495	0.0203
462.7512	0.0219
462.9528	0.0122
463.1544	0.0093
463.356	0.01
463.5576	0.0198
463.7592	0.0191
463.9607	0.0152
464.1623	0.0108
464.3638	0.0124
464.5653	0.0177
464.7668	0.0144
464.9683	0.0179
465.1697	0.0129
465.3712	0.0049
465.5726	0.005
465.7741	0.0175
465.9755	0.0167
466.1769	0.0071
466.3782	0.0036
466.5796	0.0196
466.7809	0.0114
466.9823	0.0081
467.1836	0.0065
467.3849	0.0095
467.5862	0.0026
467.7875	-0.001
467.9887	0.0018
468.19	0.0146
468.3912	0.024
468.5924	-0.0021
468.7936	0.0166
468.9948	-0.0004
469.196	0.0038
469.3972	0.0009
469.5983	0.0087
469.7994	0.013
470.0006	0.0069
470.2017	0.006
470.4027	0.0222
470.6038	0.0041
470.8049	0.0045
471.0059	0.0094
471.2069	0.0142
471.408	0.0085
471.6089	0.0082
471.8099	0.0173
472.0109	0.0057
472.2119	0.0143
472.4128	-0.0033
472.6137	0.0126
472.8146	0.0038
473.0155	0.014
473.2164	0.006
473.4173	0.0096
473.6181	-0.0048
473.819	-0.0062
474.0198	-0.0004
474.2206	-0.0001
474.4214	0.0074
474.6222	-0.0031
474.8229	0.0034
475.0237	0.009
475.2244	0.0057
475.4251	0.0013
475.6258	-0.0016
475.8265	0.0025
476.0272	0.0042
476.2278	0.0082
476.4285	0.0026
476.6291	0.0077
476.8297	0.0046
477.0303	-0.0034
477.2309	0.0107
477.4315	0.0065
477.632	0.0027
477.8326	0.0072
478.0331	0.0108
478.2336	0.0015
478.4341	0.0089
478.6346	-0.0027
478.8351	0.0018
479.0355	0.0042
479.236	0.013
479.4364	0.0016
479.6368	0.0042
479.8372	0.0026
480.0376	0.0008
480.2379	0.0043
480.4383	0.0129
480.6386	-0.0054
480.8389	0.0029
481.0392	0.0057
481.2395	0.0048
481.4398	0.0067
481.6401	0.0057
481.8403	-0.0024
482.0405	0.0062
482.2408	0.0062
482.441	0.006
482.6411	0.0048
482.8413	0.0015
483.0415	0.009
483.2416	0.0044
483.4417	0.006
483.6419	0.0028
483.8419	0.0062
484.042	-0.0007
484.2421	-0.0026
484.4422	0.0028
484.6422	0.0006
484.8422	0.0074
485.0422	0.0058
485.2422	0.0027
485.4422	0.0017
485.6422	0.0004
485.8421	0.0024
486.042	0.0106
486.242	-0.0025
486.4419	-0.0001
486.6417	-0.0043
486.8416	0.0057
487.0415	0.0036
487.2413	-0.0027
487.4411	0.008
487.641	-0.0007
487.8408	0.0028
488.0405	0.003
488.2403	0.0024
488.4401	-0.0021
488.6398	0.0065
488.8395	0.005
489.0392	0.0042
489.2389	0.0114
489.4386	-0.0055
489.6383	0.012
489.8379	0.0013
490.0376	0.0001
490.2372	0.003
490.4368	-0.0026
490.6364	0.003
490.836	0.0012
491.0355	-0.0045
491.2351	0.0043
491.4346	-0.0005
491.6341	-0.0082
491.8336	-0.0017
492.0331	-0.004
492.2326	-0.0012
492.432	0.0042
492.6315	0.0074
492.8309	0.0071
493.0303	0.005
493.2297	0.0066
493.4291	-0.0014
493.6284	0.0062
493.8278	-0.0085
494.0271	-0.0066
494.2264	0.0002
494.4257	-0.0023
494.625	-0.001
494.8243	-0.0039
495.0236	-0.0011
495.2228	0.0015
495.422	0.0036
495.6213	-0.0006
495.8205	0.0111
496.0196	0.0046
496.2188	-0.0031
496.418	0.003
496.6171	-0.0021
496.8162	0.0064
497.0153	0.0088
497.2144	0.0005
497.4135	-0.0015
497.6126	-0.0002
497.8116	-0.0001
498.0107	0.0069
498.2097	0.004
498.4087	0.0023
498.6077	-0.007
498.8067	0.0033
499.0056	-0.0073
499.2046	0.0085
499.4035	-0.0002
499.6024	-0.0062
499.8013	0.0025
500.0002	-0.0018
500.199	0.0072
500.3979	-0.0057
500.5967	0.0002
500.7956	0.0028
500.9944	0.0025
501.1932	0.0055
501.3919	0.0079
501.5907	0.0054
501.7895	-0.0012
501.9882	-0.0051
502.1869	0.006
502.3856	-0.0018
502.5843	-0.0013
502.783	-0.0068
502.9816	0.0065
503.1803	-0
503.3789	0.0099
503.5775	0.0018
503.7761	-0.0035
503.9747	0.0024
504.1732	-0.0012
504.3718	0.0108
504.5703	0.0148
504.7689	0.0004
504.9674	-0.0049
505.1658	0.0025
505.3643	0.0009
505.5628	0.0083
505.7612	0.001
505.9597	-0.0048
506.1581	0.001
506.3565	0.005
506.5549	-0.001
506.7532	-0.0017
506.9516	-0.0041
507.1499	0.002
507.3482	0.0057
507.5465	0.0038
507.7448	-0.0095
507.9431	0.0029
508.1414	-0.007
508.3396	0.0057
508.5379	-0.0058
508.7361	-0.0006
508.9343	0.0082
509.1325	0.0057
509.3306	-0.0011
509.5288	-0.0047
509.7269	0.0109
509.9251	0.0051
510.1232	0.0018
510.3213	0.0067
510.5193	-0.0025
510.7174	-0.0112
510.9154	0.0068
511.1135	-0.0144
511.3115	-0.0096
511.5095	-0.0068
511.7075	-0.0058
511.9055	-0.0063
512.1034	0.0009
512.3014	-0.0079
512.4993	-0.0009
512.6972	-0.0051
512.8951	0
513.093	-0.0091
513.2908	0.0125
513.4887	-0.0031
513.6865	-0.0013
513.8844	-0.0033
514.0822	-0.0073
514.2799	-0.0064
514.4777	-0.0011
514.6755	-0.008
514.8732	-0.0001
515.0709	-0.0076
515.2687	-0.0074
515.4664	0.0026
515.664	0.0027
515.8617	0.0075
516.0594	0.0038
516.257	-0.0057
516.4546	0.0126
516.6522	0.0007
516.8498	0.0049
517.0474	-0.0001
517.2449	-0.0101
517.4425	-0.0042
517.64	0.0019
517.8375	0.0021
518.035	-0.0123
518.2325	-0.0077
518.43	-0.0058
518.6274	-0.008
518.8249	-0.0139
519.0223	0.0058
519.2197	-0.0036
519.4171	-0.008
519.6145	0.0053
519.8118	-0.0078
520.0092	-0.0075
520.2065	0.0053
520.4038	-0.0074
520.6011	0.0083
520.7984	0.0033
520.9956	-0.0084
521.1929	0.009
521.3901	0.0063
521.5874	0.0016
521.7846	0.0026
521.9818	-0.0029
522.1789	-0.0161
522.3761	0.0073
522.5732	0.0102
522.7704	-0.003
522.9675	-0.0093
523.1646	-0.0055
523.3617	0.0077
523.5587	-0.0007
523.7558	-0.0006
523.9528	0.0014
524.1498	-0.007
524.3468	-0.0088
524.5438	-0.0042
524.7408	-0.0004
524.9378	0.0002
525.1347	0.0071
525.3316	0.0001
525.5285	-0.0041
525.7254	-0.0061
525.9223	-0.0006
526.1192	0.002
526.316	0.0049
526.5129	-0.0021
526.7097	0.0019
526.9065	0.0067
527.1033	0.0036
527.3	-0.0062
527.4968	0.001
527.6935	-0.0103
527.8903	-0.0161
528.087	-0.0105
528.2837	0.0068
528.4804	0.0006
528.677	0.0039
528.8737	-0.0025
529.0703	-0.0028
529.2669	0.0099
529.4635	-0.0066
529.6601	-0.0068
529.8567	0.0004
530.0532	0.0005
530.2498	-0.0094
530.4463	-0.0082
530.6428	-0.0059
530.8393	-0.0047
531.0358	0.0003
531.2322	-0.0086
531.4287	0.0011
531.6251	-0.0095
531.8215	-0.0108
532.0179	0.0009
532.2143	0.0062
532.4107	0.0028
532.607	-0.0035
532.8034	-0.0011
532.9997	-0.0001
533.196	-0.0047
533.3923	-0.0012
533.5886	0.0001
533.7848	-0.0057
533.9811	-0.0002
534.1773	-0.0037
534.3735	0.0023
534.5697	-0.0098
534.7659	0.0046
534.9621	-0.003
535.1582	0.0069
535.3544	0.0036
535.5505	0.001
535.7466	0.0055
535.9427	0.0092
536.1387	-0.0118
536.3348	0.002
536.5308	-0.0113
536.7269	-0.0139
536.9229	0.004
537.1189	0.009
537.3148	0.002
537.5108	0.0079
537.7068	0.0091
537.9027	-0.012
538.0986	0.0015
538.2945	-0.0087
538.4904	-0.0133
538.6863	-0.0015
538.8821	0.0031
539.078	-0.0013
539.2738	-0.0001
539.4696	-0.0161
539.6654	0.0006
539.8611	0.0029
540.0569	-0.0018
540.2526	0.0127
540.4484	-0.0092
540.6441	-0.0009
540.8398	0.0062
541.0355	-0.0036
541.2311	0.0031
541.4268	0.0081
541.6224	0.0116
541.818	0.0047
542.0136	0.0097
542.2092	-0.0002
542.4048	0.0057
542.6003	0.0088
542.7959	0.0053
542.9914	-0.003
543.1869	0
543.3824	-0.0066
543.5779	0.0045
543.7734	0.0092
543.9688	0.004
544.1642	-0.0011
544.3596	0.007
544.555	0.0013
544.7504	0.0086
544.9458	-0.0042
545.1411	-0.0022
545.3365	0.0039
545.5318	0.0071
545.7271	0.0008
545.9224	-0.0054
546.1177	0.0041
546.3129	-0.0046
546.5081	-0.0014
546.7034	-0.0025
546.8986	0.0068
547.0938	0.0058
547.289	-0.0015
547.4841	-0.0002
547.6793	0.0088
547.8744	0.0106
548.0695	-0.0067
548.2646	0.0098
548.4597	-0.0075
548.6548	0.0158
548.8498	0.0014
549.0448	0.0006
549.2399	0.017
549.4349	0.0007
549.6298	0.0088
549.8248	-0.0018
550.0198	0.0016
550.2147	0.0017
550.4096	-0.0066
550.6045	-0.0067
550.7994	0.0051
550.9943	0.0074
551.1892	-0.0159
551.384	0.0131
551.5788	0.0066
551.7737	0.0025
551.9685	-0.0027
552.1632	0.0006
552.358	0.0078
552.5528	-0.007
552.7475	-0.0056
552.9422	0.0083
553.1369	0.0057
553.3316	0.0041
553.5263	0.0023
553.7209	-0.0017
553.9156	0.0068
554.1102	0.0019
554.3048	0.0043
554.4994	-0.0022
554.694	0.0077
554.8885	0.0051
555.0831	0.0031
555.2776	0.0027
555.4721	0.0044
555.6666	0.0059
555.8611	0.0026
556.0555	0.002
556.25	0.0008
556.4444	-0.0028
556.6388	0.0039
556.8332	0.0072
557.0276	0.0019
557.222	-0.0054
557.4163	0.0101
557.6107	-0.0001
557.805	-0.0071
557.9993	0.0012
558.1936	-0.003
558.3879	0.0057
558.5821	-0.0014
558.7764	-0.0011
558.9706	-0.0088
559.1648	0.0083
559.359	0.0053
559.5532	-0.003
559.7473	-0.01
559.9415	-0.0026
560.1356	0.0045
560.3297	-0.0012
560.5238	0.0053
560.7179	-0.0064
560.9119	-0.0083
561.106	-0.0012
561.3	0.0032
561.494	-0.0071
561.688	-0.007
561.882	-0.001
562.076	0.0103
562.2699	0.0117
562.4639	0.0045
562.6578	0.0088
562.8517	0.0058
563.0456	-0.0049
563.2395	0.0074
563.4333	-0.0033
563.6272	0.0062
563.821	-0.0015
564.0148	0.0028
564.2086	0.0067
564.4024	0.0121
564.5961	0.0112
564.7899	0.007
564.9836	0.0063
565.1773	0.0165
565.371	-0.0017
565.5647	-0.0006
565.7584	0.0047
565.952	0.0033
566.1456	-0.0023
566.3393	0.0021
566.5329	-0.0064
566.7264	0.0013
566.92	0.0053
567.1136	-0.0039
567.3071	-0.002
567.5006	0.0053
567.6941	-0.0017
567.8876	-0.0007
568.0811	0.0145
568.2745	-0.0117
568.468	0.0019
568.6614	0.0042
568.8548	0.0048
569.0482	-0.0001
569.2416	0.0097
569.4349	0.005
569.6283	-0.0001
569.8216	0.0035
570.0149	-0.0018
570.2082	0.0065
570.4015	0.0024
570.5947	0.0072
570.788	0.0083
570.9812	-0.0003
571.1744	0.0069
571.3676	0.0069
571.5608	0.0034
571.754	0.0107
571.9471	0.006
572.1402	0.0053
572.3333	0.0061
572.5264	0.0043
572.7195	-0.0001
572.9126	0.0005
573.1057	0.0033
573.2987	0.002
573.4917	0.0023
573.6847	-0.0003
573.8777	0.0075
574.0707	0.0022
574.2636	0.0032
574.4566	0.0034
574.6495	0.0006
574.8424	0.0057
575.0353	0.002
575.2281	0.0094
575.421	0.0022
575.6138	-0.0014
575.8067	0.0056
575.9995	0.0046
576.1923	0.0055
576.385	0.0031
576.5778	0.0039
576.7706	0.0035
576.9633	0.0049
577.156	-0.0021
577.3487	0.0026
577.5414	0.0023
577.734	0.0032
577.9267	0.0043
578.1193	0.0087
578.3119	0.0024
578.5045	0.005
578.6971	-0.0016
578.8897	0.0029
579.0822	0.0055
579.2747	0.0014
579.4673	0.0011
579.6598	0.0076
579.8522	0.0033
580.0447	0.0072
580.2372	0.0078
580.4296	0.0085
580.622	0.0014
580.8144	0.0072
581.0068	0.004
581.1992	0.0074
581.3915	-0.0001
581.5839	0.0043
581.7762	0.0039
581.9685	0.0036
582.1608	0.0038
582.353	0.0026
582.5453	0.0053
582.7375	0.0039
582.9298	0.0022
583.122	0.0021
583.3142	-0.0025
583.5063	0.0023
583.6985	0.0003
583.8906	0.0006
584.0827	-0
584.2749	0.0001
584.4669	0.0034
584.659	0.006
584.8511	0.008
585.0431	0.0051
585.2352	0.0035
585.4272	0.0019
585.6192	0.0049
585.8111	0.0024
586.0031	0.0036
586.195	-0.0005
586.387	-0.0025
586.5789	0.0058
586.7708	0.0079
586.9627	0.0079
587.1545	0.0017
587.3464	0.0049
587.5382	-0.0005
587.73	0.0072
587.9218	0.0016
588.1136	-0.0011
588.3053	0.0063
588.4971	0.0017
588.6888	0.0022
588.8805	-0.0053
589.0722	0.0111
589.2639	0.0029
589.4556	0.0083
589.6472	0.0088
589.8389	0.0053
590.0305	0.0042
590.2221	0.0089
590.4137	0.0005
590.6052	0.0014
590.7968	0.0033
590.9883	0.0092
591.1798	0.0022
591.3713	0.0017
591.5628	0.0054
591.7543	0.0079
591.9458	0.0017
592.1372	0.0077
592.3286	0.0031
592.52	0.008
592.7114	0.0026
592.9028	0.0085
593.0941	0.0016
593.2855	0.0057
593.4768	0.0097
593.6681	0.0096
593.8594	0.0103
594.0506	0.0056
594.2419	0.0045
594.4331	0.0092
594.6244	0.0007
594.8156	0.0053
595.0067	0.001
595.1979	0.0022
595.3891	0.0009
595.5802	0.0086
595.7713	0.0056
595.9624	0.009
596.1535	0.0026
596.3446	-0.0008
596.5357	0.011
596.7267	0.0007
596.9177	-0.0001
597.1087	0.0034
597.2997	0.0037
597.4907	0.0023
597.6817	0.0031
597.8726	0.0042
598.0635	-0.0039
598.2544	0.0076
598.4453	0.0022
598.6362	0.0036
598.827	0.0025
599.0179	0.0095
599.2087	0.0076
599.3995	0.003
599.5903	0.0087
599.7811	0.0123
599.9718	0.0035
600.1626	0.0061
600.3533	0.0054
600.544	0.0072
600.7347	0.0033
600.9254	0.0117
601.116	0.0008
601.3067	-0.0013
601.4973	0.0096
601.6879	-0.0015
601.8785	0.0042
602.0691	0.0056
602.2596	0.0034
602.4502	0.0026
602.6407	0.0047
602.8312	0.0029
603.0217	0.0059
603.2122	0.0071
603.4027	0.0054
603.5931	0.001
603.7835	0.0024
603.9739	-0.0019
604.1643	0.0067
604.3547	0.0145
604.5451	0.0073
604.7354	-0.0023
604.9257	-0.0017
605.116	-0.0004
605.3063	0.0014
605.4966	0.0045
605.6869	0.0091
605.8771	0.0052
606.0673	0.0069
606.2575	0.0096
606.4477	0.0058
606.6379	-0.0011
606.8281	0.0048
607.0182	0.0002
607.2083	0.0043
607.3985	0.0007
607.5885	0.0035
607.7786	0.0022
607.9687	0.008
608.1587	0.0088
608.3488	0.0047
608.5388	0.0012
608.7288	-0.004
608.9187	0.0013
609.1087	0.0049
609.2986	0.0071
609.4886	0.0006
609.6785	0.0075
609.8684	0.0016
610.0582	-0
610.2481	-0.0049
610.4379	0.0031
610.6278	0.0033
610.8176	0.0058
611.0074	0.0031
611.1971	0.0032
611.3869	0.0011
611.5766	-0.0029
611.7664	0.0084
611.9561	0.0077
612.1458	0.0035
612.3354	0.0013
612.5251	0.0047
612.7147	0.0166
612.9044	0.001
613.094	0.0059
613.2836	0.0001
613.4731	0.0094
613.6627	0.0015
613.8522	0.0019
614.0417	0.0126
614.2313	0.0017
614.4207	0.0102
614.6102	0.0067
614.7997	0.0082
614.9891	0.0078
615.1785	-0.0013
615.3679	0.0016
615.5573	0.0034
615.7467	-0.0047
615.9361	0.0076
616.1254	0.0096
616.3147	0.0012
616.504	0.0035
616.6933	0.0017
616.8826	-0.0069
617.0718	0.0108
617.2611	0.002
617.4503	0.0023
617.6395	0.0015
617.8287	0.0042
618.0179	0.0002
618.207	0.0122
618.3961	-0.0052
618.5853	0.0038
618.7744	0.011
618.9634	0.0061
619.1525	0.0039
619.3416	-0.0033
619.5306	0.0073
619.7196	0.0084
619.9086	-0.0023
620.0976	0.0008
620.2866	0.0129
620.4755	-0.0007
620.6645	-0.0013
620.8534	0.0004
621.0423	0.0007
621.2312	0.0028
621.42	0.0066
621.6089	0.001
621.7977	0.0021
621.9865	0.0006
622.1753	0.0025
622.3641	-0.0024
622.5529	-0.003
622.7416	0.0025
622.9303	0.0052
623.1191	0.0087
623.3078	0.0089
623.4964	0.0034
623.6851	0.0013
623.8737	0.0058
624.0624	-0.0113
624.251	0.0007
624.4396	0.0032
624.6282	0.0097
624.8167	-0.001
625.0053	0.0073
625.1938	0.0048
625.3823	0.0029
625.5708	0.0097
625.7593	-0.005
625.9477	0.0143
626.1362	0.0085
626.3246	-0.0064
626.513	0.0041
626.7014	0.0063
626.8898	0.0156
627.0781	0.0001
627.2665	0.0107
627.4548	0.0051
627.6431	0
627.8314	0.0021
628.0197	0.0102
628.2079	-0.009
628.3962	0.0019
628.5844	0.0132
628.7726	-0.0092
628.9608	0.0049
629.1489	0.0106
629.3371	-0.0086
629.5252	0.0043
629.7134	-0.0025
629.9015	0.0136
630.0895	-0.008
630.2776	0.0125
630.4657	0.0049
630.6537	-0.0004
630.8417	-0.0064
631.0297	-0.0156
631.2177	0.0024
631.4057	-0.0077
631.5936	0.0029
631.7815	0.0036
631.9695	0.0235
632.1574	0.0082
632.3452	0.0091
632.5331	0.0111
632.7209	0.0182
632.9088	-0.0112
633.0966	0.0175
633.2844	-0.0076
633.4722	0.0062
633.6599	0.0063
633.8477	0.0081
634.0354	0.0205
634.2231	-0.0116
634.4108	0.0088
634.5985	0.0009
634.7861	-0.002
634.9738	-0.0003
635.1614	-0.0011
635.349	-0.0075
635.5366	0.0036
635.7242	0.0081
635.9117	0.0104
636.0993	0.0067
636.2868	-0.0103
636.4743	0.0087
636.6618	-0.0192
636.8492	0.0068
637.0367	-0.0202
637.2241	0.0133
637.4115	0.0192
637.5989	0.0076
637.7863	0.0191
637.9737	-0.0065
638.161	-0.0025
638.3484	-0.0028
638.5357	0.0042
638.723	0.0097
638.9103	-0.0113
639.0975	0.008
639.2848	0.0138
639.472	0.0125
639.6592	-0.0142
639.8464	0.0037
640.0336	-0.0022
640.2208	0.006
640.4079	-0.01
640.595	-0.0006
640.7821	0.006
640.9692	-0.009
641.1563	0.0047
641.3434	0.0125
641.5304	0.0039
641.7174	0.0204
641.9044	-0.0064
642.0914	0.0242
642.2784	-0.0004
642.4653	-0.0031
642.6523	-0.0052
642.8392	-0.0205
643.0261	0.0031
643.213	0.0056
643.3999	0.0245
643.5867	0.0156
643.7735	0.0221
643.9604	0.0099
644.1472	-0.0015
644.3339	-0.0079
644.5207	-0.0006
644.7075	-0.0063
644.8942	0.0019
645.0809	0.0086
645.2676	-0.0214
645.4543	0.0015
645.6409	0.021
645.8276	-0.0048
646.0142	0.0039
646.2008	0.0042
646.3874	-0.0281
646.574	0.0081
646.7605	0.0057
646.9471	-0.0144
647.1336	-0.0045
647.3201	-0.0046
647.5066	-0.013
647.6931	0.0083
647.8795	0.0045
648.0659	-0.0003
648.2524	0.0089
648.4388	0.0004
648.6252	0.0079
648.8115	-0.0069
648.9979	0.0143
649.1842	0.0114
649.3705	0.0043
649.5568	-0.0044
649.7431	0.0029
649.9294	-0.0085
650.1156	-0.0105
650.3018	0.0069
650.488	-0.0085
650.6742	0.0075
650.8604	0.0139
651.0466	0.0074
651.2327	-0.0156
651.4188	-0.006
651.6049	0.0164
651.791	-0.0057
651.9771	0.0086
652.1632	0.006
652.3492	0.0026
652.5352	0.012
652.7212	-0.0172
652.9072	-0.009
653.0932	0.0022
653.2791	-0.005
653.465	0.0049
653.651	0.0137
653.8369	0.0009
654.0227	0.0033
654.2086	0.0013
654.3944	0.0207
654.5803	0.0089
654.7661	0.0071
654.9519	-0.0012
655.1377	-0.0001
655.3234	-0.0001
655.5092	-0.0001
655.6949	-0.0001
655.8806	-0.0001
656.0663	-0.0001
656.2519	-0.0001
656.4376	-0.0001
656.6232	-0.0001
656.8088	-0.0001
656.9945	-0.0001
657.18	-0.0001
657.3656	-0.0001
657.5511	-0.0001
657.7367	-0.0001
657.9222	-0.0001
658.1077	-0.0001
658.2932	-0.0001
658.4786	-0.0001
658.6641	-0.0001
658.8495	-0.0001
659.0349	-0.0001
659.2203	-0.0001
659.4057	-0.0001
659.591	0.1367
659.7764	0.032
659.9617	-0.0003
660.147	0.0093
660.3323	0.0104
660.5176	-0.0071
660.7028	-0.0199
660.888	0.0016
661.0733	0.0119
661.2585	-0.0173
661.4436	0.0131
661.6288	0.0146
661.8139	-0.0232
661.9991	-0.0368
662.1842	0.0038
662.3693	0.0044
662.5544	0.0106
662.7394	0.0038
662.9245	-0.0105
663.1095	-0.0356
663.2945	-0.0246
663.4795	-0.0315
663.6644	-0.0173
663.8494	0.0048
664.0343	-0.0035
664.2193	-0.009
664.4042	-0.0005
664.589	0.0107
664.7739	-0.0021
664.9587	-0.0056
665.1436	-0.0148
665.3284	-0.0002
665.5132	-0.017
665.698	0.0091
665.8827	0.01
666.0675	-0.0277
666.2522	0.0107
666.4369	-0.0064
666.6216	-0.0165
666.8063	-0.008
666.9909	0.0124
667.1756	0.0017
667.3602	-0.009
667.5448	0.0259
667.7294	0.0046
667.9139	-0.0095
668.0985	0.0188
668.283	0.0076
668.4675	0.0301
668.652	-0.0047
668.8365	-0.0032
669.0209	0.0188
669.2054	-0.0103
669.3898	-0.0105
669.5742	0.0069
669.7586	0.0238
669.943	0.0013
670.1273	0.0139
670.3117	0.0096
670.496	-0.0041
670.6803	0.0087
670.8646	-0.0145
671.0488	0.0154
671.2331	-0.0218
671.4173	0.0061
671.6015	0.0135
671.7857	-0.0024
671.9699	0.0053
672.1541	-0.0069
672.3382	0.0021
672.5223	-0.0022
672.7064	0.0069
672.8905	0.0133
673.0746	-0.0032
673.2587	0.0105
673.4427	0.0175
673.6267	0.0017
673.8107	0.0136
673.9947	0.0254
674.1787	-0.0253
674.3626	0.0064
674.5465	-0.0015
674.7304	0.0126
674.9143	-0.0141
675.0982	0.0212
675.2821	-0.0202
675.4659	-0.0103
675.6497	-0.0055
675.8335	-0.0175
676.0173	0.0125
676.2011	0.0043
676.3849	-0.0021
676.5686	0.0159
676.7523	0.0047
676.936	0.0096
677.1197	-0.004
677.3034	0.0302
677.487	0.0029
677.6706	0.0056
677.8542	-0.0071
678.0378	0.0072
678.2214	0.0047
678.405	0.0028
678.5885	0.0016
678.772	0.0009
678.9555	-0.0022
679.139	0.0118
679.3225	-0.0085
679.5059	-0.0028
679.6894	0.0031
679.8728	-0.0064
680.0562	-0.0055
680.2395	-0.0049
680.4229	-0.0086
680.6062	0.0171
680.7896	-0.0301
680.9729	0.0155
681.1562	-0.0084
681.3394	-0.0015
681.5227	-0.0064
681.7059	0.0056
681.8891	0.0014
682.0723	0.0078
682.2555	-0.0052
682.4387	0.0118
682.6218	0.0055
682.805	0.0188
682.9881	0.019
683.1712	0.0133
683.3542	0.0104
683.5373	-0.023
683.7203	0.0126
683.9034	0.0058
684.0864	-0.0039
684.2694	0.0066
684.4523	0.0002
684.6353	-0.0141
684.8182	-0.0111
685.0011	0.0174
685.184	0.0019
685.3669	0.0285
685.5498	-0.0111
685.7326	-0.0016
685.9154	-0.0019
686.0982	0.0191
686.281	-0.0079
686.4638	0.0148
686.6465	0.0056
686.8293	-0.0157
687.012	0.0101
687.1947	0.0177
687.3774	-0.0114
687.56	0.0172
687.7427	0.011
687.9253	-0.0137
688.1079	-0.0226
688.2905	-0.0002
688.4731	0.0197
688.6556	0.0094
688.8382	-0.0067
689.0207	-0.0072
689.2032	0.0098
689.3857	0.0001
689.5681	-0.0057
689.7506	0.0197
689.933	-0.0039
690.1154	0.0154
690.2978	0.0096
690.4802	0.0109
690.6626	0.0053
690.8449	0.0055
691.0272	-0.0131
691.2095	-0.0143
691.3918	0.0077
691.5741	0.0005
691.7563	-0.0145
691.9386	0.0171
692.1208	-0.0067
692.303	-0.0138
692.4852	0.0109
692.6673	-0.0037
692.8495	0.0028
693.0316	0.0092
693.2137	0.0186
693.3958	0.0164
693.5778	-0.0127
693.7599	-0.0042
693.9419	-0.0213
694.1239	0.0063
694.3059	0.0238
694.4879	0.0096
694.6699	-0.0022
694.8518	0.0153
695.0337	0.0124
695.2157	0.0306
695.3975	-0.014
695.5794	-0.0238
695.7613	0.013
695.9431	-0.0104
696.1249	0.0045
696.3067	0.0131
696.4885	0.0197
696.6703	0.0009
696.852	-0.011
697.0337	0.0159
697.2154	0.005
697.3971	0.0125
697.5788	0.0244
697.7605	-0.0102
697.9421	0.0038
698.1237	0.0146
698.3053	-0.0013
698.4869	0.0194
698.6685	-0.0017
698.85	0.0147
699.0315	-0.0303
699.213	0.0175
699.3945	-0.007
699.576	0.0128
699.7575	0.0074
699.9389	0.0064
700.1203	-0.0078
700.3017	0.0222
700.4831	0.0232
700.6645	0.0193
700.8458	-0.0238
701.0271	0.0221
701.2084	0.0064
701.3897	0.0107
701.571	-0.0173
701.7523	-0.0057
701.9335	0.0223
702.1147	0.0144
702.2959	-0.0214
702.4771	0.0152
702.6583	0.0039
702.8394	-0.0302
703.0205	0.0182
703.2016	-0.0106
703.3827	-0.0154
703.5638	0.0171
703.7449	0.0171
703.9259	0.0034
704.1069	-0.0092
704.2879	0.0013
704.4689	0.0108
704.6499	-0.0044
704.8308	0.0071
705.0117	0.0001
705.1927	0.0172
705.3735	-0.0269
705.5544	-0.0021
705.7353	0.0039
705.9161	-0.0196
706.0969	0.0271
706.2777	-0.007
706.4585	0.001
706.6393	0.0147
706.82	0.0113
707.0007	0.0009
707.1815	0.0058
707.3621	0.0064
707.5428	0.006
707.7235	0.0025
707.9041	0.0116
708.0847	0.0146
708.2653	0.0253
708.4459	0.0004
708.6265	-0.0193
708.807	-0.0088
708.9875	-0.0028
709.168	-0.0138
709.3485	0.0193
709.529	-0.0031
709.7095	-0.0057
709.8899	0.0161
710.0703	0.0001
710.2507	0.0076
710.4311	-0.0212
710.6115	0.0279
710.7918	0.0094
710.9721	-0.0041
711.1524	0.0053
711.3327	0.01
711.513	0.0106
711.6932	0.0018
711.8735	0.0025
712.0537	-0.04
712.2339	-0.0114
712.4141	0.0149
712.5942	-0.0302
712.7744	0.02
712.9545	0.003
713.1346	0.0367
713.3147	0.0077
713.4947	-0.0122
713.6748	-0.0007
713.8548	0.0288
714.0348	0.0009
714.2148	0.0157
714.3948	0.0194
714.5748	0.0175
714.7547	0.0341
714.9346	0.0234
715.1145	-0.0009
715.2944	-0.0226
715.4743	0.029
715.6541	-0.0142
715.834	0.0049
716.0138	0.0373
716.1936	-0.0057
716.3733	-0.0073
716.5531	-0.0295
716.7328	-0.0081
716.9126	-0.0019
717.0923	-0.0079
717.2719	-0.0071
717.4516	0.0009
717.6312	-0.02
717.8109	0.0273
717.9905	-0.0013
718.1701	0.0045
718.3496	-0.0065
718.5292	-0.0074
718.7087	-0.0003
718.8882	0.018
719.0677	0.0203
719.2472	-0.0152
719.4267	-0.0073
719.6061	-0.0325
719.7856	0.0041
719.965	0.0239
720.1443	-0.0194
720.3237	-0.0046
720.5031	0.0156
720.6824	-0.0041
720.8617	0.0119
721.041	0.0445
721.2203	-0.0111
721.3995	-0.0127
721.5788	0.0256
721.758	-0.0218
721.9372	-0.0134
722.1164	0.0194
722.2956	-0.0217
722.4747	0.018
722.6538	0.0023
722.8329	0.0119
723.012	-0.0007
723.1911	0.0018
723.3702	0.0229
723.5492	-0.002
723.7282	-0.0071
723.9072	0.0091
724.0862	-0.0017
724.2652	0.0294
724.4441	0.0046
724.623	0.0069
724.8019	-0.0066
724.9808	-0.012
725.1597	0.0115
725.3385	-0.0043
725.5174	-0.0076
725.6962	0.0146
725.875	-0.0012
726.0538	-0.0139
726.2325	0.0243
726.4112	-0.0066
726.59	-0.0162
726.7687	-0.0169
726.9474	0.0124
727.126	0.0394
727.3047	-0.0073
727.4833	0.0111
727.6619	-0.015
727.8405	-0.0164
728.0191	0.0181
728.1976	0.0215
728.3762	0.0162
728.5547	-0.0121
728.7332	-0.0037
728.9116	0.0128
729.0901	0.0093
729.2686	-0.0129
729.447	-0.0115
729.6254	0.0125
729.8038	-0.0034
729.9821	0.0039
730.1605	0.0241
730.3388	0.0027
730.5171	0.0045
730.6954	-0.0162
730.8737	0.001
731.0519	-0.003
731.2302	0.021
731.4084	-0.0024
731.5866	-0.0119
731.7648	-0.0023
731.9429	0.0148
732.1211	-0.0005
732.2992	-0.0099
732.4773	-0.0169
732.6554	-0.0033
732.8335	0.036
733.0115	-0.0007
733.1896	-0.0139
733.3676	0.0247
733.5456	-0.0045
733.7235	-0.0019
733.9015	-0.0092
734.0794	0.0047
734.2574	-0.0202
734.4353	0.0188
734.6131	-0.0066
734.791	-0.0061
734.9689	-0.0028
735.1467	-0.0173
735.3245	0.0162
735.5023	-0.0016
735.68	0.0069
735.8578	0.0145
736.0355	0.0054
736.2132	0.0019
736.3909	0.0133
736.5686	0.0006
736.7463	-0.0077
736.9239	0.0234
737.1015	0.0087
737.2791	0.0081
737.4567	-0.0133
737.6343	0.0251
737.8118	0.0097
737.9894	-0.0041
738.1669	0.0054
738.3444	0.0251
738.5218	-0.0022
738.6993	0.0254
738.8767	0.0091
739.0541	0.0041
739.2315	0.0138
739.4089	0.0091
739.5863	-0.0028
739.7636	0.012
739.9409	-0.0121
740.1182	-0.0202
740.2955	0.0135
740.4728	-0.0243
740.65	-0.023
740.8272	0.0116
741.0044	0.0179
741.1816	0.0187
741.3588	-0.0286
741.5359	-0.0034
741.7131	0.0117
741.8902	0.0013
742.0673	-0.0145
742.2444	0.023
742.4214	0.0186
742.5985	-0.0069
742.7755	-0.008
742.9525	-0.0113
743.1295	-0.0224
743.3064	-0.0152
743.4834	0.0107
743.6603	0.0325
743.8372	-0.029
744.0141	-0.0066
744.191	-0.0018
744.3678	-0.0514
744.5446	0.0106
744.7215	0.0123
744.8982	0.0099
745.075	0.0308
745.2518	-0.0053
745.4285	0.0239
745.6052	-0.0442
745.7819	0.0202
745.9586	0.0106
746.1353	-0.0149
746.3119	-0.0124
746.4885	0.0266
746.6651	0.0155
746.8417	-0.0082
747.0183	0.0124
747.1948	0.0146
747.3714	-0.0032
747.5479	0.0487
747.7244	-0.0187
747.9008	-0.012
748.0773	0.0258
748.2537	-0.001
748.4301	0.0505
748.6065	-0.0154
748.7829	-0.0332
748.9593	-0.001
749.1356	0.0187
749.3119	0.0199
749.4882	0.0081
749.6645	-0.0124
749.8408	0.0144
750.017	0.032
750.1933	-0.0188
750.3695	0.0007
750.5457	-0.003
750.7218	0.0101
750.898	-0.0099
751.0741	0.0117
751.2502	0.0174
751.4263	-0.0136
751.6024	-0.0149
751.7784	0.0033
751.9545	-0.0108
752.1305	0.0047
752.3065	0.0257
752.4825	-0.0031
752.6584	0.0021
752.8344	-0.0017
753.0103	-0.0196
753.1862	0.0058
753.3621	0.0034
753.5379	-0.0102
753.7138	-0.0066
753.8896	0.0144
754.0654	-0.0104
754.2412	0.0004
754.417	0.0263
754.5927	0.0118
754.7685	0.0248
754.9442	0.0177
755.1199	0.0185
755.2956	0.0213
755.4712	0.0046
755.6469	-0.0028
755.8225	0.0051
755.9981	-0.0068
756.1736	-0.0021
756.3492	-0.0062
756.5248	0.0352
756.7003	-0.0084
756.8758	-0.0025
757.0513	0.0059
757.2267	0.0096
757.4022	-0.0084
757.5776	0.0037
757.753	0.0224
757.9284	-0.0023
758.1038	0.0091
758.2791	-0.0098
758.4545	-0.0172
758.6298	-0.0086
758.8051	-0.0071
758.9803	0.0029
759.1556	-0.0103
759.3308	-0.0159
759.506	0.0009
759.6812	0.0052
759.8564	0.0051
760.0316	-0.0135
760.2067	0.0133
760.3819	-0.0162
760.557	0.0056
760.732	-0.0128
760.9071	0.0091
761.0821	-0.0271
761.2572	0.0213
761.4322	0.0045
761.6072	0.0101
761.7821	-0.039
761.9571	0.0091
762.132	0.0039
762.3069	0.0209
762.4818	-0.0044
762.6567	-0.0146
762.8316	0.021
763.0064	0.0092
763.1812	0.0206
763.356	-0.0041
763.5308	0.0229
763.7055	0.0089
763.8803	-0.0069
764.055	-0.007
764.2297	-0.0143
764.4044	-0.0141
764.579	-0.0112
764.7537	0.001
764.9283	0.0115
765.1029	0.0049
765.2775	-0.0002
765.4521	0.0026
765.6266	-0.0055
765.8011	0.0324
765.9756	0.0166
766.1501	-0.0164
766.3246	0.006
766.4991	0.0054
766.6735	0.0252
766.8479	0.0039
767.0223	0.0023
767.1967	0.0007
767.371	0.0294
767.5454	0.0081
767.7197	0.0261
767.894	-0.0103
768.0683	0.0275
768.2425	0.018
768.4168	0.0184
768.591	0.018
768.7652	0.0065
768.9394	-0.0303
769.1135	-0.019
769.2877	0.0202
769.4618	0.0146
769.6359	0.0107
769.81	0.0237
769.984	-0.0154
770.1581	-0.0062
770.3321	0.0329
770.5061	-0.0188
770.6801	0.0028
770.8541	0.0102
771.028	0.0264
771.202	0.0254
771.3759	-0.0064
771.5498	0.0035
771.7236	0.0087
771.8975	0.0183
772.0713	0.0136
772.2451	-0.0152
772.4189	0.0001
772.5927	-0.0155
772.7665	-0.0141
772.9402	0.0178
773.1139	-0.0214
773.2876	0.0068
773.4613	0.0139
773.635	-0.0087
773.8086	0.0534
773.9822	0.0086
774.1558	0.0411
774.3294	0.014
774.503	0.0093
774.6765	0.0453
774.8501	-0.0139
775.0236	0.0399
775.1971	-0.0104
775.3705	-0.0037
775.544	-0.0193
775.7174	-0.0143
775.8908	-0.0161
776.0642	0.006
776.2376	0.0412
776.4109	-0.0215
776.5843	-0.0111
776.7576	-0.0156
776.9309	0.0525
777.1041	-0.0632
777.2774	0.0094
777.4506	0.0115
777.6238	0.0011
777.797	0.0189
777.9702	-0.007
778.1434	0.0045
778.3165	-0.0102
778.4896	-0.043
778.6627	0.02
778.8358	-0.023
779.0089	-0.0227
779.1819	0.0188
779.3549	-0.0039
779.5279	-0.0101
779.7009	0.0104
779.8739	0.062
780.0468	0.0286
780.2197	0.0312
780.3926	-0.0374
780.5655	0.0001
780.7384	0.0121
780.9112	0.0312
781.0841	0.0249
781.2569	0.0046
781.4297	0.0244
781.6024	0.0088
781.7752	0.0334
781.9479	0.0451
782.1206	0.0017
782.2933	0.0093
782.466	0.0208
782.6386	-0.0178
782.8113	0.0203
782.9839	-0.0244
783.1565	0.0057
783.329	-0.0004
783.5016	-0.0055
783.6741	-0.0184
783.8466	0.0126
784.0191	0.0105
784.1916	-0.0288
784.3641	-0.0367
784.5365	0.0048
784.7089	-0.0194
784.8813	0.0477
785.0537	0.0321
785.2261	0.0246
785.3984	0.0009
785.5707	-0.0242
785.743	0.0247
785.9153	-0.0514
786.0876	-0.0433
786.2598	0.0108
786.432	0.0302
786.6042	0.0478
786.7764	-0.0193
786.9486	0.0332
787.1207	0.0382
787.2928	0.041
787.4649	0.018
787.637	0.017
787.8091	-0.0154
787.9811	0.0007
788.1532	0.0384
788.3252	0.0222
788.4972	-0.001
788.6691	-0.0039
788.8411	-0.0193
789.013	0.0027
789.1849	-0.0213
789.3568	-0.0006
789.5287	0.0245
789.7005	-0.0386
789.8723	-0.051
790.0442	-0.0286
790.2159	-0.0326
790.3877	0.0633
790.5595	0.0382
790.7312	0.0176
790.9029	-0.0473
791.0746	0.0284
791.2463	-0.0714
791.4179	0.0186
791.5896	0.0393
791.7612	0.0207
791.9328	0.0367
792.1044	-0.0512
792.2759	-0.0455
792.4474	-0.0123
792.619	-0.0304
792.7905	-0.0154
792.9619	0.0392
793.1334	0.064
793.3048	0.0387
793.4762	-0.0306
793.6476	0.0074
793.819	-0.0012
793.9904	-0.0035
794.1617	-0.0333
794.333	0.0209
794.5043	0.0001
794.6756	0.0065
794.8469	-0.0077
795.0181	0.0155
795.1893	0.0325
795.3605	0.0645
795.5317	-0.0543
795.7029	0.0165
795.874	0.0021
796.0452	0.0286
796.2163	0.0496
796.3873	0.1125
796.5584	0.0252
796.7294	0.0019
796.9005	0.0702
797.0715	-0.0271
797.2425	0.0717
797.4134	0.0097
797.5844	0.0558
797.7553	0.0106
797.9262	0.0935
798.0971	-0.0346
798.2679	-0.0256
798.4388	0.0593
798.6096	0.0256
798.7804	0.0102
798.9512	0.051
799.122	-0.0136
799.2927	0.0154
799.4635	-0.0214
799.6342	-0.0779
799.8049	0.053
799.9755	0.0307
800.1462	0.0433
800.3168	0.0137
800.4874	-0.0885
800.658	0.0152
800.8286	-0.0562
800.9991	0.0347
801.1696	-0.0182
801.3402	-0.0452
801.5106	-0.02
801.6811	-0.1226
801.8516	0.0988
802.022	-0.018
802.1924	-0.0036
802.3628	0.0799
802.5332	0.0947
802.7035	0.0507
802.8739	-0.076
803.0442	-0.0337
803.2145	0.007
803.3847	-0.0042
803.555	-0.0112
803.7252	0.0167
803.8954	-0.0403
804.0656	0.0285
804.2358	-0.0032
804.4059	0.0162
804.5761	0.0592
804.7462	0.0127
804.9163	-0.0811
805.0864	-0.0249
805.2564	-0.0089
805.4264	0.0155
805.5965	0.0464
805.7665	-0.0403
805.9364	0.0162
806.1064	-0.009
806.2763	0.0566
806.4462	-0.0107
806.6161	0.0199
806.786	0.0155
806.9559	0.0607
807.1257	-0.0058
807.2955	-0.0217
807.4653	0.0015
807.6351	0.0481
807.8048	-0.001
807.9746	0.0462
808.1443	-0.0458
808.314	0.0459
808.4837	0.0381
808.6533	-0.0195
808.8229	0.0144
808.9926	0.0492
809.1622	0.0606
809.3317	-0.0263
809.5013	-0.0625
809.6708	0.0667
809.8403	0.022
810.0098	-0.0135
810.1793	-0.0582
810.3488	-0.0538
810.5182	0.0753
810.6876	-0.0185
810.857	0.0095
811.0264	-0.0167
811.1958	0.0101
811.3651	-0.0156
811.5344	-0.0442
811.7037	0.0447
811.873	0.0595
812.0422	-0.0593
812.2115	-0.0177
812.3807	-0.1055
812.5499	-0.0171
812.7191	0.0052
812.8882	0.0168
813.0574	0.0388
813.2265	0.0558
813.3956	0.0513
813.5646	-0.0194
813.7337	-0.0971
813.9027	-0.0625
814.0718	0.0046
814.2407	0.0252
814.4097	0.0723
814.5787	0.0561
814.7476	0.0432
814.9165	0.0434
815.0854	-0.041
815.2543	-0.0439
815.4232	0.106
815.592	0.0717
815.7608	-0.1623
815.9296	0.0178
816.0984	0.0612
816.2671	-0.1863
816.4359	0.1688
816.6046	0.0259
816.7733	-0.1609
816.942	-0.0592
817.1106	0.0701
817.2793	-0.0611
817.4479	-0.0041
817.6165	0.0196
817.785	0.0742
817.9536	0.0161
818.1221	0.1551
818.2906	-0.1435
818.4591	0.0118
818.6276	-0.0976
818.7961	-0.027
818.9645	0.0549
819.1329	-0.0615
819.3013	-0.0445
819.4697	-0.0645
819.638	0.0149
819.8064	0.0074
819.9747	-0.1139
820.143	-0.2211
820.3113	-0.0236
820.4795	0.0117
820.6477	0.0123
820.816	0.0906
820.9842	0.0332
821.1523	0.0147
821.3205	-0.0345
821.4886	-0.0056
821.6567	-0.0274
821.8248	0.0888
821.9929	-0.1648
822.1609	-0.0346
822.329	-0.0601
822.497	0.0365
822.665	0.0106
822.833	-0.0175
823.0009	-0.088
823.1688	0.0601
823.3367	-0.0041
823.5046	0.0202
823.6725	-0.0517
823.8404	0.0631
824.0082	-0.0822
824.176	-0.0892
824.3438	0.211
824.5116	0.0138
824.6793	0.0913
824.847	-0.1245
825.0147	0.0599
825.1824	0.1798
825.3501	-0.0463
825.5177	0.0187
825.6854	-0.1283
825.853	-0.1068
826.0206	-0.0811
826.1881	-0.0307
826.3557	0.07
826.5232	0.0412
826.6907	-0.0649
826.8582	-0.0843
827.0257	0.0798
827.1931	0.0758
827.3605	-0.1071
827.528	0.1416
827.6953	-0.2148
827.8627	0.0286
828.03	0.0057
828.1974	-0.0558
828.3647	0.163
828.532	0.0895
828.6992	0.1556
828.8665	-0.0699
829.0337	-0.1684
829.2009	-0.1246
829.3681	0.0105
829.5352	-0.1924
829.7024	0.0011
829.8695	-0.1645
830.0366	0.1853
830.2037	0.2981
830.3707	0.1969
830.5378	-0.0408
830.7048	-0.1019
830.8718	0.0817
831.0388	0.0583
831.2057	0.2455
831.3727	-0.4896
831.5396	-0.0662
831.7065	-0.786
831.8734	0.1074
832.0402	0.1907
832.2071	-0.6869
832.3739	-0.1834
832.5407	-1.5631
832.7075	-0.48
832.8742	-0.1039
833.041	0.3006
833.2077	0.0015
833.3744	0.0051
833.541	0.1696
833.7077	-0.2269
833.8743	-0.0313
834.0409	-0.0126
834.2075	0.1287
834.3741	-0.2836
834.5407	-0.1494
834.7072	0.0257
834.8737	0.2582
835.0402	0.3005
835.2067	-0.1092
835.3731	-0.0952
835.5395	-0.0172
835.706	-0.2054
835.8723	-0.054
836.0387	0.3068
836.2051	-0.0294
836.3714	0.0526
836.5377	-0.0781
836.704	0.1587
836.8703	-0.1281
837.0365	-0.5238
837.2027	0.3509
837.3689	0.2054
837.5351	-0.0318
837.7013	0.023
837.8674	0.0947
838.0335	-0.0141
838.1997	-0.2903
838.3657	0.4944
838.5318	-0.3039
838.6978	0.6202
838.8639	-0.6411
839.0299	-0.1938
839.1958	0.0297
839.3618	0.0763
839.5277	0.1012
839.6937	-0.0915
839.8596	-0.1576
840.0254	-0.1814
840.1913	-0.2561
840.3571	-0.1691
840.523	-0
840.6888	-0.0824
840.8545	-0.4309
841.0203	0.0707
841.186	-0.0055
841.3517	0.0023
841.5174	0.3006
841.6831	0.0574
841.8488	0.1404
842.0144	-0.1455
842.18	0.1072
842.3456	-0.4484
842.5112	-0
842.6767	-0.1385
842.8422	-0.0625
843.0077	0.3667
843.1732	-0.5336
843.3387	-0.2378
843.5042	-0
843.6696	-0.0399
843.835	-0.1799
844.0004	-0.0639
844.1657	-1.0867
844.3311	-0
844.4964	-0.693
844.6617	0.1484
844.827	0.2215
844.9923	0.0262
845.1575	0.5421
845.3227	-0.2262
845.4879	-0.4041
845.6531	0.2569
845.8183	-0.0655
845.9834	-0
846.1485	0.1951
846.3136	-0.1909
846.4787	-0
846.6438	0.2048
846.8088	0.1297
846.9738	-0
847.1388	0.0438
847.3038	0.2537
847.4687	0.7979
847.6337	0.1038
847.7986	-0.2077
847.9635	-0.165
848.1284	-0
848.2932	0.396
848.458	-0
848.6228	0.3776
848.7876	0.4347
848.9524	-0.3489
849.1172	-1.7301
849.2819	-1.0739
849.4466	0.2281
849.6113	0.1023
849.7759	-0
849.9406	-0.0795
850.1052	-0.1684
850.2698	-0
850.4344	0.1529
850.599	-0.1848
850.7635	0.4651
850.928	0.4736
851.0925	0.4089
851.257	0.9901
851.4215	-0
851.5859	-0.0919
851.7503	-0
851.9147	-0.2566
852.0791	-0.2707
852.2434	0.4029
852.4078	-0
852.5721	0.1054
852.7364	-0.0375
852.9007	-0.1456
853.0649	-0
853.2291	0.282
853.3934	0.6316
853.5575	-0.0198
853.7217	0.3669
853.8859	-0.4121
854.05	-0.3385
854.2141	0.1
854.3782	0.7711
854.5423	0.0062
854.7063	-0.1535
854.8703	0.1655
855.0343	-0.2614
855.1983	-0.093
855.3623	-0.0608
855.5262	-0
855.6901	0.8406
855.854	0.1317
856.0179	-0.4305
856.1818	0.6349
856.3456	0.376
856.5094	-0.8396
856.6732	-0
856.837	-1.0975
857.0008	-0
857.1645	-0.0761
857.3282	-0.6708
857.4919	0.002
857.6556	-0.4391
857.8192	-0.1129
857.9828	-0.0795
858.1465	0.1772
858.31	0.7239
858.4736	-0
858.6372	-0.5114
858.8007	-0.1079
858.9642	0.5494
859.1277	-0
859.2911	-0.4541
859.4546	-1.716
859.618	0.9274
859.7814	0.2601
859.9448	-0
860.1081	-0
860.2715	-1.0357
860.4348	-0.1107
860.5981	1.2522
860.7614	-0.3729
860.9246	-0.2323
861.0879	0.2184
861.2511	-0.3402
861.4143	-0
861.5774	-0.215
861.7406	-0.2606
861.9037	-0
862.0668	-0.5777
862.2299	0.9332
862.393	-0
862.556	-0.6549
862.7191	-0.5806
862.8821	0.0874
863.0451	-0.2722
863.208	-0
863.371	-0.4525
863.5339	0.1378
863.6968	0.0855
863.8597	-0.2278
864.0225	0.1279
864.1854	0.2557
864.3482	-1.0401
864.511	-0.0198
864.6737	-0
864.8365	0.1857
864.9992	-0.0354
865.1619	-0.7013
865.3246	-1.9325
865.4873	0.7549
865.65	0.3343
865.8126	0.786
865.9752	-0.0913
866.1378	-0.0451
866.3004	-0.2709
866.4629	-1.8062
866.6254	-0.5083
866.7879	-0
866.9504	0.1331
867.1129	-0.3035
867.2753	-0.0188
867.4377	0.0194
867.6001	-0
867.7625	-0.3181
867.9249	0.0675
868.0872	-0.237
868.2495	-0.0082
868.4118	-0
868.5741	0.2968
868.7363	-0.0307
868.8986	-0.6148
869.0608	-0
869.223	-0.5422
869.3851	-0
869.5473	0.2221
869.7094	-0
869.8715	-0.4157
870.0336	0.1658
870.1957	-0.0307
870.3577	0.5593
870.5197	-0.494
870.6817	-0.94
870.8437	0.205
871.0057	-0
871.1676	0.0646
871.3295	0.0419
871.4914	-0
871.6533	-0.0673
871.8151	-0
871.977	-0.244
872.1388	-0.5165
872.3006	-0.2293
872.4623	-1.0469
872.6241	1.0746
872.7858	0.0332
872.9475	-0
873.1092	0.096
873.2709	0.7704
873.4325	-1.4973
873.5941	-0
873.7557	-0
873.9173	0.1847
874.0789	-0.0055
874.2404	-0
874.4019	-0.1784
874.5634	-0
874.7249	-0.0109
874.8863	0.046
875.0478	-0.3087
875.2092	0.4389
875.3706	-0.0271
875.5319	-0
875.6933	0.1992
875.8546	-0.4524
876.0159	1.2298
876.1772	-0.1748
876.3385	-0.0955
876.4997	-0
876.6609	0.187
876.8221	-0
876.9833	0.0795
877.1445	0.1126
877.3056	0.8893
877.4667	-0
877.6278	-0
877.7889	-0
877.9499	0.017
878.111	-0.6513
878.272	-0.244
878.433	-0
878.5939	0.1776
878.7549	0.0286
878.9158	0.3929
879.0767	-0
879.2376	-0
879.3984	0.5547
879.5593	-0
879.7201	-1.583
879.8809	-0.2008
880.0417	-0.3278
880.2024	-0.1819
880.3632	-0.5525
880.5239	-0.2953
880.6846	-0
880.8452	-0.2444
881.0059	-0.6021
881.1665	0.2526
881.3271	0.1143
881.4877	0.4321
881.6483	-0
881.8088	-0
881.9693	-0
882.1298	-0
882.2903	-0
