Data from D4ACN5uM440nmA_Absorbance_13-50-24-868.txt Node
Date: Fri Feb 21 13:50:24 GMT 2025
User: LASERRRRR
Spectrometer: FLMT03099
Trigger mode: 0
Integration Time (sec): 1.500000E-2
Scans to average: 1
Electric dark correction enabled: true
Nonlinearity correction enabled: false
Boxcar width: 0
XAxis mode: Wavelengths
Number of Pixels in Spectrum: 3648
>>>>>Begin Spectral Data<<<<<
179.3399	-0.3105
179.5586	-0.3105
179.7771	-0.3105
179.9957	0.0462
180.2143	-0.632
180.4329	0.0488
180.6514	-0
180.8699	-0
181.0885	-0
181.307	-0
181.5255	0.2975
181.744	-0
181.9625	0.1696
182.181	-0.0305
182.3994	-0.5132
182.6179	-0
182.8363	0.6809
183.0547	-0.1661
183.2732	0.1955
183.4916	0.2934
183.71	0.4576
183.9284	0.1481
184.1467	0.0427
184.3651	-0.0848
184.5835	0.0805
184.8018	0.1571
185.0201	0.1272
185.2385	0.1433
185.4568	0.1193
185.6751	0.1374
185.8934	0.2456
186.1117	-0.161
186.3299	0.2311
186.5482	0.1512
186.7664	0.3573
186.9847	0.0763
187.2029	0.2747
187.4211	0.1884
187.6393	0.2034
187.8575	0.1887
188.0757	0.0977
188.2939	0.3231
188.512	0.3177
188.7302	0.1269
188.9483	0.2049
189.1665	1.0416
189.3846	0.3029
189.6027	0.0251
189.8208	0.3542
190.0389	0.0961
190.257	0.0696
190.475	-0.0295
190.6931	0.2761
190.9111	0.1925
191.1292	0.2358
191.3472	0.0527
191.5652	0.2177
191.7832	0.21
192.0012	0.2191
192.2192	0.1647
192.4371	0.2852
192.6551	0.1999
192.873	0.1534
193.091	0.1794
193.3089	0.3802
193.5268	0.3068
193.7447	0.1682
193.9626	0.2961
194.1805	0.2059
194.3984	0.1827
194.6162	0.332
194.8341	0.2624
195.0519	0.2562
195.2697	0.2616
195.4875	0.3047
195.7054	0.2602
195.9231	0.1913
196.1409	0.3667
196.3587	0.3195
196.5765	0.3071
196.7942	0.3521
197.012	0.3948
197.2297	0.3423
197.4474	0.372
197.6651	0.3226
197.8828	0.3441
198.1005	0.3856
198.3182	0.3526
198.5358	0.3496
198.7535	0.3798
198.9711	0.4126
199.1888	0.4219
199.4064	0.409
199.624	0.3664
199.8416	0.3604
200.0592	0.3979
200.2767	0.4193
200.4943	0.4365
200.7119	0.3854
200.9294	0.4554
201.1469	0.4463
201.3645	0.4472
201.582	0.3581
201.7995	0.4844
202.017	0.4134
202.2344	0.4437
202.4519	0.3608
202.6694	0.4
202.8868	0.4251
203.1042	0.4137
203.3217	0.4106
203.5391	0.3922
203.7565	0.3414
203.9739	0.3878
204.1913	0.3843
204.4086	0.4044
204.626	0.3742
204.8433	0.3658
205.0607	0.3597
205.278	0.3564
205.4953	0.359
205.7126	0.3171
205.9299	0.3283
206.1472	0.3706
206.3644	0.3479
206.5817	0.3311
206.7989	0.3315
207.0162	0.3199
207.2334	0.3241
207.4506	0.3102
207.6678	0.3153
207.885	0.3085
208.1022	0.3135
208.3194	0.3228
208.5365	0.302
208.7537	0.2849
208.9708	0.3011
209.1879	0.2938
209.405	0.2788
209.6222	0.2803
209.8392	0.3212
210.0563	0.2882
210.2734	0.2778
210.4905	0.2498
210.7075	0.2935
210.9245	0.2583
211.1416	0.2653
211.3586	0.2835
211.5756	0.2414
211.7926	0.2899
212.0096	0.268
212.2265	0.2615
212.4435	0.2679
212.6604	0.2453
212.8774	0.2261
213.0943	0.2678
213.3112	0.2623
213.5281	0.2513
213.745	0.2332
213.9619	0.2508
214.1788	0.2608
214.3956	0.265
214.6125	0.2487
214.8293	0.2415
215.0461	0.2374
215.2629	0.2413
215.4798	0.2405
215.6965	0.2315
215.9133	0.2595
216.1301	0.253
216.3469	0.2688
216.5636	0.235
216.7803	0.2645
216.9971	0.2663
217.2138	0.2564
217.4305	0.2701
217.6472	0.2348
217.8639	0.2537
218.0805	0.2541
218.2972	0.2445
218.5138	0.2413
218.7305	0.259
218.9471	0.2589
219.1637	0.2689
219.3803	0.2494
219.5969	0.2589
219.8135	0.2647
220.0301	0.2603
220.2466	0.272
220.4632	0.2542
220.6797	0.2598
220.8962	0.2538
221.1127	0.2689
221.3292	0.2805
221.5457	0.2602
221.7622	0.262
221.9787	0.2836
222.1951	0.2729
222.4116	0.2901
222.628	0.2881
222.8444	0.2918
223.0608	0.2744
223.2772	0.2858
223.4936	0.2817
223.71	0.2789
223.9264	0.283
224.1427	0.2935
224.3591	0.2853
224.5754	0.285
224.7917	0.2995
225.008	0.2956
225.2243	0.2987
225.4406	0.299
225.6569	0.311
225.8732	0.3136
226.0894	0.3175
226.3057	0.3133
226.5219	0.3207
226.7381	0.3212
226.9543	0.3214
227.1705	0.3259
227.3867	0.3207
227.6029	0.3168
227.8191	0.3428
228.0352	0.3384
228.2513	0.3511
228.4675	0.3479
228.6836	0.3487
228.8997	0.3504
229.1158	0.3645
229.3319	0.3705
229.548	0.3494
229.764	0.3579
229.9801	0.3695
230.1961	0.3725
230.4121	0.3772
230.6282	0.3839
230.8442	0.3836
231.0602	0.3817
231.2761	0.3744
231.4921	0.3903
231.7081	0.3875
231.924	0.3977
232.14	0.4068
232.3559	0.4064
232.5718	0.4102
232.7877	0.4015
233.0036	0.4045
233.2195	0.4107
233.4353	0.4237
233.6512	0.3977
233.867	0.4222
234.0829	0.4255
234.2987	0.4262
234.5145	0.4263
234.7303	0.4237
234.9461	0.4369
235.1619	0.4461
235.3776	0.4281
235.5934	0.431
235.8091	0.4442
236.0249	0.4514
236.2406	0.4385
236.4563	0.4447
236.672	0.4425
236.8877	0.4526
237.1034	0.4524
237.319	0.4541
237.5347	0.4539
237.7503	0.4467
237.966	0.4569
238.1816	0.4508
238.3972	0.459
238.6128	0.4638
238.8284	0.4645
239.0439	0.4626
239.2595	0.4601
239.475	0.4642
239.6906	0.4542
239.9061	0.4615
240.1216	0.466
240.3371	0.4637
240.5526	0.465
240.7681	0.4572
240.9836	0.4598
241.199	0.4593
241.4145	0.4504
241.6299	0.4494
241.8453	0.4428
242.0607	0.4363
242.2761	0.4289
242.4915	0.4164
242.7069	0.416
242.9223	0.4131
243.1376	0.4143
243.353	0.398
243.5683	0.3913
243.7836	0.389
243.9989	0.378
244.2142	0.3618
244.4295	0.3716
244.6448	0.3551
244.86	0.3533
245.0753	0.3417
245.2905	0.335
245.5057	0.3298
245.721	0.3323
245.9362	0.3261
246.1514	0.3175
246.3665	0.3041
246.5817	0.303
246.7969	0.2941
247.012	0.2821
247.2271	0.2918
247.4423	0.2879
247.6574	0.2783
247.8725	0.2705
248.0876	0.2712
248.3026	0.2724
248.5177	0.2599
248.7328	0.2501
248.9478	0.2588
249.1628	0.2468
249.3779	0.2402
249.5929	0.2414
249.8079	0.2363
250.0228	0.2317
250.2378	0.2292
250.4528	0.2308
250.6677	0.2219
250.8827	0.2156
251.0976	0.221
251.3125	0.2123
251.5274	0.2058
251.7423	0.2087
251.9572	0.2126
252.172	0.2056
252.3869	0.208
252.6017	0.2037
252.8166	0.2022
253.0314	0.1953
253.2462	0.1959
253.461	0.1967
253.6758	0.1962
253.8906	0.1967
254.1053	0.1938
254.3201	0.1916
254.5348	0.1815
254.7496	0.1844
254.9643	0.192
255.179	0.1826
255.3937	0.1882
255.6083	0.1911
255.823	0.1846
256.0377	0.1832
256.2523	0.1827
256.467	0.1855
256.6816	0.1834
256.8962	0.1863
257.1108	0.183
257.3254	0.1793
257.54	0.1805
257.7545	0.1829
257.9691	0.1824
258.1836	0.1725
258.3981	0.1807
258.6127	0.1702
258.8272	0.1816
259.0417	0.1766
259.2561	0.1775
259.4706	0.1736
259.6851	0.1767
259.8995	0.18
260.114	0.1799
260.3284	0.1738
260.5428	0.173
260.7572	0.1744
260.9716	0.1788
261.186	0.1748
261.4003	0.1736
261.6147	0.1771
261.829	0.1736
262.0433	0.1746
262.2577	0.1736
262.472	0.1702
262.6863	0.1838
262.9005	0.1717
263.1148	0.1764
263.3291	0.1769
263.5433	0.1765
263.7576	0.1776
263.9718	0.1787
264.186	0.1848
264.4002	0.1798
264.6144	0.1817
264.8286	0.1783
265.0427	0.1844
265.2569	0.1793
265.471	0.1761
265.6851	0.1834
265.8993	0.1787
266.1134	0.1767
266.3275	0.1745
266.5415	0.1803
266.7556	0.1789
266.9697	0.1833
267.1837	0.1808
267.3978	0.1766
267.6118	0.1721
267.8258	0.1863
268.0398	0.1749
268.2538	0.1791
268.4677	0.1758
268.6817	0.18
268.8957	0.1713
269.1096	0.1741
269.3235	0.1714
269.5374	0.1765
269.7514	0.1739
269.9652	0.1784
270.1791	0.1687
270.393	0.1726
270.6068	0.1733
270.8207	0.1727
271.0345	0.1723
271.2483	0.1661
271.4622	0.1755
271.676	0.1665
271.8897	0.1728
272.1035	0.1733
272.3173	0.173
272.531	0.1674
272.7448	0.1695
272.9585	0.1634
273.1722	0.1667
273.3859	0.1719
273.5996	0.1724
273.8133	0.1736
274.0269	0.1662
274.2406	0.1743
274.4542	0.1674
274.6679	0.1749
274.8815	0.1783
275.0951	0.177
275.3087	0.1786
275.5223	0.1759
275.7358	0.1684
275.9494	0.1768
276.1629	0.1717
276.3765	0.1762
276.59	0.1667
276.8035	0.1716
277.017	0.1796
277.2305	0.1729
277.444	0.1762
277.6574	0.1757
277.8709	0.1798
278.0843	0.1843
278.2978	0.1796
278.5112	0.1788
278.7246	0.1796
278.938	0.177
279.1513	0.1782
279.3647	0.182
279.5781	0.173
279.7914	0.1781
280.0047	0.1773
280.2181	0.1802
280.4314	0.1801
280.6447	0.183
280.8579	0.178
281.0712	0.1786
281.2845	0.1775
281.4977	0.1776
281.711	0.1761
281.9242	0.1789
282.1374	0.181
282.3506	0.181
282.5638	0.177
282.7769	0.1779
282.9901	0.1802
283.2033	0.1833
283.4164	0.177
283.6295	0.1829
283.8426	0.1815
284.0557	0.1835
284.2688	0.1821
284.4819	0.1776
284.695	0.1897
284.908	0.1796
285.1211	0.1831
285.3341	0.1814
285.5471	0.1822
285.7601	0.1858
285.9731	0.1901
286.1861	0.1853
286.3991	0.1895
286.612	0.1803
286.825	0.1836
287.0379	0.1867
287.2508	0.1845
287.4637	0.1876
287.6766	0.1881
287.8895	0.1853
288.1024	0.1875
288.3152	0.1889
288.5281	0.1836
288.7409	0.1944
288.9538	0.189
289.1666	0.1947
289.3794	0.1905
289.5922	0.186
289.8049	0.1948
290.0177	0.1974
290.2304	0.1908
290.4432	0.1938
290.6559	0.1947
290.8686	0.1926
291.0813	0.1944
291.294	0.1909
291.5067	0.1863
291.7194	0.1882
291.932	0.1919
292.1447	0.1959
292.3573	0.1957
292.5699	0.1931
292.7825	0.1892
292.9951	0.1959
293.2077	0.1957
293.4203	0.1922
293.6328	0.1931
293.8454	0.1971
294.0579	0.1955
294.2704	0.1996
294.4829	0.1933
294.6954	0.1937
294.9079	0.1898
295.1204	0.1904
295.3328	0.1984
295.5453	0.1945
295.7577	0.189
295.9701	0.1909
296.1825	0.1965
296.3949	0.1974
296.6073	0.1886
296.8197	0.1954
297.0321	0.198
297.2444	0.1873
297.4567	0.1933
297.6691	0.1927
297.8814	0.1901
298.0937	0.19
298.306	0.1873
298.5182	0.1951
298.7305	0.1935
298.9428	0.1931
299.155	0.1848
299.3672	0.1893
299.5794	0.1911
299.7916	0.1957
300.0038	0.1961
300.216	0.1924
300.4282	0.1922
300.6403	0.1963
300.8525	0.1928
301.0646	0.1885
301.2767	0.1982
301.4888	0.1924
301.7009	0.1942
301.913	0.2001
302.125	0.1902
302.3371	0.193
302.5491	0.1949
302.7612	0.1954
302.9732	0.196
303.1852	0.1894
303.3972	0.1927
303.6092	0.1954
303.8211	0.1934
304.0331	0.1886
304.245	0.1839
304.457	0.188
304.6689	0.1891
304.8808	0.1849
305.0927	0.1891
305.3046	0.1885
305.5164	0.1843
305.7283	0.1825
305.9401	0.1768
306.152	0.1793
306.3638	0.1799
306.5756	0.1841
306.7874	0.175
306.9992	0.1743
307.2109	0.1719
307.4227	0.1701
307.6344	0.1729
307.8462	0.1722
308.0579	0.1703
308.2696	0.1677
308.4813	0.162
308.693	0.1569
308.9046	0.1661
309.1163	0.1556
309.328	0.1584
309.5396	0.156
309.7512	0.1542
309.9628	0.1483
310.1744	0.1515
310.386	0.146
310.5976	0.1481
310.8091	0.1504
311.0207	0.1465
311.2322	0.1444
311.4437	0.1419
311.6552	0.1439
311.8667	0.1425
312.0782	0.1403
312.2897	0.1459
312.5012	0.135
312.7126	0.1349
312.924	0.1375
313.1355	0.1314
313.3469	0.1381
313.5583	0.1362
313.7696	0.1357
313.981	0.1352
314.1924	0.1242
314.4037	0.1267
314.6151	0.1326
314.8264	0.1311
315.0377	0.1344
315.249	0.1341
315.4603	0.1236
315.6716	0.1299
315.8828	0.1254
316.0941	0.1315
316.3053	0.1266
316.5165	0.1335
316.7277	0.1255
316.9389	0.1275
317.1501	0.1177
317.3613	0.1247
317.5724	0.121
317.7836	0.1209
317.9947	0.1229
318.2058	0.1255
318.417	0.1191
318.6281	0.1173
318.8391	0.1262
319.0502	0.1241
319.2613	0.1221
319.4723	0.1188
319.6834	0.1225
319.8944	0.1216
320.1054	0.1223
320.3164	0.1221
320.5274	0.1252
320.7383	0.1268
320.9493	0.1241
321.1602	0.1193
321.3712	0.1205
321.5821	0.1181
321.793	0.1324
322.0039	0.1264
322.2148	0.1225
322.4257	0.1192
322.6365	0.1243
322.8474	0.1257
323.0582	0.1271
323.269	0.122
323.4798	0.1265
323.6906	0.1214
323.9014	0.1198
324.1122	0.1169
324.3229	0.1284
324.5337	0.1202
324.7444	0.1274
324.9551	0.1258
325.1658	0.1264
325.3765	0.1229
325.5872	0.1226
325.7979	0.1297
326.0085	0.1275
326.2192	0.119
326.4298	0.1281
326.6404	0.1296
326.851	0.1272
327.0616	0.1236
327.2722	0.126
327.4828	0.1263
327.6933	0.1342
327.9039	0.1276
328.1144	0.1253
328.3249	0.1301
328.5354	0.1196
328.7459	0.1274
328.9564	0.1271
329.1669	0.1308
329.3773	0.132
329.5878	0.1273
329.7982	0.1325
330.0086	0.1304
330.219	0.1277
330.4294	0.135
330.6398	0.1324
330.8502	0.1375
331.0605	0.1352
331.2708	0.1315
331.4812	0.1339
331.6915	0.1351
331.9018	0.1287
332.1121	0.1356
332.3224	0.132
332.5326	0.127
332.7429	0.1323
332.9531	0.1397
333.1633	0.1318
333.3735	0.1323
333.5837	0.1292
333.7939	0.1399
334.0041	0.1389
334.2143	0.1327
334.4244	0.146
334.6346	0.1305
334.8447	0.1349
335.0548	0.137
335.2649	0.1372
335.475	0.134
335.685	0.1355
335.8951	0.1311
336.1051	0.1434
336.3152	0.1343
336.5252	0.1344
336.7352	0.1346
336.9452	0.1421
337.1552	0.1384
337.3652	0.1346
337.5751	0.1425
337.7851	0.1375
337.995	0.1384
338.2049	0.1414
338.4148	0.1362
338.6247	0.138
338.8346	0.1385
339.0445	0.1447
339.2543	0.1402
339.4642	0.1367
339.674	0.1385
339.8838	0.1409
340.0936	0.1408
340.3034	0.1365
340.5132	0.1407
340.7229	0.147
340.9327	0.1498
341.1424	0.1423
341.3522	0.1376
341.5619	0.146
341.7716	0.1443
341.9813	0.1503
342.1909	0.1439
342.4006	0.1504
342.6102	0.1492
342.8199	0.1465
343.0295	0.1409
343.2391	0.1436
343.4487	0.1572
343.6583	0.1607
343.8679	0.1536
344.0774	0.1509
344.287	0.1494
344.4965	0.1541
344.706	0.1547
344.9155	0.151
345.125	0.1513
345.3345	0.1615
345.544	0.1634
345.7534	0.1518
345.9629	0.1612
346.1723	0.1509
346.3817	0.1655
346.5911	0.1609
346.8005	0.1633
347.0099	0.1562
347.2193	0.1714
347.4286	0.1691
347.638	0.1651
347.8473	0.1706
348.0566	0.1638
348.2659	0.1595
348.4752	0.1602
348.6845	0.1635
348.8937	0.1664
349.103	0.1666
349.3122	0.1636
349.5214	0.1688
349.7306	0.1755
349.9398	0.174
350.149	0.1675
350.3582	0.171
350.5674	0.1678
350.7765	0.1778
350.9856	0.1716
351.1948	0.1733
351.4039	0.1772
351.613	0.1766
351.822	0.1771
352.0311	0.1802
352.2402	0.1841
352.4492	0.1757
352.6582	0.1767
352.8672	0.174
353.0762	0.179
353.2852	0.1739
353.4942	0.1825
353.7032	0.1802
353.9121	0.1789
354.1211	0.1781
354.33	0.184
354.5389	0.1792
354.7478	0.1796
354.9567	0.1858
355.1655	0.1769
355.3744	0.183
355.5833	0.1825
355.7921	0.1927
356.0009	0.1897
356.2097	0.1829
356.4185	0.1892
356.6273	0.1814
356.8361	0.1891
357.0448	0.1929
357.2536	0.1939
357.4623	0.1906
357.671	0.198
357.8797	0.1864
358.0884	0.1861
358.2971	0.1949
358.5057	0.2003
358.7144	0.1917
358.923	0.1961
359.1316	0.2005
359.3402	0.191
359.5488	0.2011
359.7574	0.204
359.966	0.202
360.1746	0.2012
360.3831	0.2099
360.5916	0.2042
360.8002	0.2127
361.0087	0.2117
361.2172	0.206
361.4256	0.2103
361.6341	0.2059
361.8426	0.2042
362.051	0.2147
362.2594	0.2058
362.4678	0.2125
362.6762	0.2144
362.8846	0.2148
363.093	0.2199
363.3014	0.2206
363.5097	0.2184
363.718	0.2254
363.9264	0.2201
364.1347	0.2242
364.343	0.2253
364.5513	0.2256
364.7595	0.2244
364.9678	0.2218
365.176	0.2283
365.3842	0.2313
365.5925	0.229
365.8007	0.2319
366.0089	0.2356
366.217	0.2313
366.4252	0.2336
366.6333	0.2329
366.8415	0.236
367.0496	0.2299
367.2577	0.241
367.4658	0.2379
367.6739	0.2356
367.882	0.2481
368.09	0.2371
368.2981	0.25
368.5061	0.2409
368.7141	0.2434
368.9221	0.2508
369.1301	0.2523
369.3381	0.2574
369.5461	0.2478
369.754	0.2498
369.962	0.252
370.1699	0.2533
370.3778	0.2533
370.5857	0.2585
370.7936	0.2567
371.0015	0.2504
371.2093	0.2566
371.4172	0.2537
371.625	0.2612
371.8328	0.2523
372.0406	0.2625
372.2484	0.259
372.4562	0.257
372.664	0.2581
372.8717	0.2597
373.0795	0.2654
373.2872	0.2651
373.4949	0.2623
373.7026	0.2651
373.9103	0.2612
374.118	0.2746
374.3256	0.2638
374.5333	0.2645
374.7409	0.2759
374.9485	0.2647
375.1561	0.2745
375.3637	0.2731
375.5713	0.2737
375.7789	0.2676
375.9864	0.283
376.194	0.2758
376.4015	0.2747
376.609	0.2742
376.8165	0.2765
377.024	0.2761
377.2315	0.274
377.4389	0.271
377.6464	0.2875
377.8538	0.2777
378.0612	0.2826
378.2686	0.2832
378.476	0.2892
378.6834	0.2821
378.8908	0.2975
379.0981	0.2905
379.3055	0.2832
379.5128	0.2793
379.7201	0.2882
379.9274	0.2908
380.1347	0.2914
380.342	0.2902
380.5492	0.2912
380.7565	0.2914
380.9637	0.2891
381.1709	0.2972
381.3781	0.2947
381.5853	0.2904
381.7925	0.3
381.9997	0.3028
382.2068	0.2972
382.4139	0.2993
382.6211	0.3005
382.8282	0.3073
383.0353	0.3011
383.2424	0.2924
383.4494	0.2953
383.6565	0.2984
383.8635	0.3026
384.0706	0.3011
384.2776	0.2959
384.4846	0.3037
384.6916	0.2998
384.8986	0.3005
385.1055	0.3014
385.3125	0.3131
385.5194	0.3076
385.7263	0.3087
385.9333	0.3062
386.1402	0.3108
386.347	0.3048
386.5539	0.3022
386.7608	0.2963
386.9676	0.3102
387.1744	0.2971
387.3813	0.3147
387.5881	0.3064
387.7948	0.3092
388.0016	0.3101
388.2084	0.3057
388.4151	0.3088
388.6219	0.2909
388.8286	0.2939
389.0353	0.3062
389.242	0.3108
389.4487	0.2994
389.6553	0.3025
389.862	0.3005
390.0686	0.3084
390.2753	0.293
390.4819	0.2933
390.6885	0.2936
390.8951	0.2879
391.1016	0.2918
391.3082	0.297
391.5147	0.29
391.7213	0.287
391.9278	0.287
392.1343	0.2929
392.3408	0.2819
392.5473	0.2815
392.7537	0.2778
392.9602	0.2865
393.1666	0.2863
393.373	0.278
393.5794	0.2833
393.7858	0.2816
393.9922	0.2777
394.1986	0.2818
394.4049	0.2807
394.6113	0.2793
394.8176	0.276
395.0239	0.2756
395.2302	0.2688
395.4365	0.2704
395.6428	0.2753
395.8491	0.2817
396.0553	0.2615
396.2615	0.262
396.4678	0.2705
396.674	0.266
396.8802	0.2559
397.0863	0.2646
397.2925	0.2637
397.4987	0.2663
397.7048	0.2694
397.9109	0.2693
398.117	0.2709
398.3231	0.2606
398.5292	0.2511
398.7353	0.257
398.9413	0.2579
399.1474	0.2658
399.3534	0.2622
399.5594	0.2597
399.7654	0.2538
399.9714	0.2721
400.1774	0.2533
400.3833	0.2588
400.5893	0.2569
400.7952	0.2598
401.0011	0.2531
401.207	0.2632
401.4129	0.2611
401.6188	0.2579
401.8247	0.2668
402.0305	0.2523
402.2364	0.2702
402.4422	0.2646
402.648	0.2592
402.8538	0.2476
403.0596	0.2574
403.2654	0.2592
403.4711	0.2555
403.6768	0.262
403.8826	0.2697
404.0883	0.2644
404.294	0.2569
404.4997	0.2579
404.7054	0.2613
404.911	0.2569
405.1167	0.2698
405.3223	0.2499
405.5279	0.2516
405.7335	0.254
405.9391	0.2561
406.1447	0.2617
406.3502	0.258
406.5558	0.2576
406.7613	0.2574
406.9668	0.2567
407.1724	0.2585
407.3778	0.2562
407.5833	0.247
407.7888	0.2579
407.9942	0.2501
408.1997	0.2633
408.4051	0.254
408.6105	0.261
408.8159	0.2504
409.0213	0.2639
409.2267	0.2577
409.432	0.2628
409.6374	0.2708
409.8427	0.2623
410.048	0.2598
410.2533	0.2581
410.4586	0.2513
410.6639	0.2637
410.8691	0.2553
411.0744	0.2511
411.2796	0.2575
411.4848	0.259
411.69	0.2511
411.8952	0.2595
412.1004	0.2589
412.3056	0.256
412.5107	0.2472
412.7158	0.2609
412.921	0.2623
413.1261	0.2547
413.3312	0.2607
413.5362	0.2568
413.7413	0.2578
413.9464	0.247
414.1514	0.2607
414.3564	0.2479
414.5614	0.2457
414.7664	0.251
414.9714	0.2479
415.1764	0.2558
415.3813	0.2497
415.5863	0.2557
415.7912	0.2506
415.9961	0.2489
416.201	0.2552
416.4059	0.2523
416.6108	0.2482
416.8156	0.2534
417.0205	0.2594
417.2253	0.2408
417.4301	0.2646
417.6349	0.2462
417.8397	0.2391
418.0445	0.246
418.2492	0.2453
418.454	0.2478
418.6587	0.2464
418.8634	0.2525
419.0681	0.2519
419.2728	0.2484
419.4775	0.2644
419.6822	0.2405
419.8868	0.2471
420.0915	0.2435
420.2961	0.2386
420.5007	0.2359
420.7053	0.2445
420.9099	0.2414
421.1144	0.2392
421.319	0.2346
421.5235	0.2323
421.728	0.2353
421.9325	0.2398
422.137	0.2323
422.3415	0.237
422.546	0.2256
422.7504	0.2284
422.9549	0.2428
423.1593	0.2296
423.3637	0.2338
423.5681	0.2294
423.7725	0.2297
423.9769	0.2289
424.1812	0.2155
424.3856	0.2233
424.5899	0.2247
424.7942	0.22
424.9985	0.2203
425.2028	0.2291
425.4071	0.2296
425.6113	0.2186
425.8156	0.2208
426.0198	0.2244
426.224	0.219
426.4282	0.2093
426.6324	0.219
426.8366	0.2042
427.0407	0.2113
427.2449	0.207
427.449	0.2099
427.6531	0.2195
427.8572	0.2161
428.0613	0.212
428.2654	0.2124
428.4694	0.1995
428.6735	0.2016
428.8775	0.2034
429.0815	0.2001
429.2855	0.2059
429.4895	0.1974
429.6935	0.1964
429.8975	0.1941
430.1014	0.1998
430.3053	0.1924
430.5093	0.1904
430.7132	0.1885
430.9171	0.1895
431.1209	0.1808
431.3248	0.1761
431.5286	0.1756
431.7325	0.1981
431.9363	0.1793
432.1401	0.1776
432.3439	0.1702
432.5477	0.1707
432.7514	0.1712
432.9552	0.1693
433.1589	0.1665
433.3627	0.1679
433.5664	0.1701
433.7701	0.1699
433.9737	0.1666
434.1774	0.1586
434.3811	0.1575
434.5847	0.1585
434.7883	0.1586
434.9919	0.1547
435.1955	0.1551
435.3991	0.1564
435.6027	0.1482
435.8062	0.1555
436.0098	0.1388
436.2133	0.1359
436.4168	0.1368
436.6203	0.1482
436.8238	0.1324
437.0272	0.1329
437.2307	0.1288
437.4341	0.1348
437.6375	0.1294
437.841	0.1272
438.0443	0.135
438.2477	0.1299
438.4511	0.1214
438.6545	0.1272
438.8578	0.1228
439.0611	0.1357
439.2644	0.1211
439.4677	0.1144
439.671	0.1048
439.8743	0.1122
440.0775	0.1182
440.2808	0.1132
440.484	0.1141
440.6872	0.1088
440.8904	0.0979
441.0936	0.1089
441.2967	0.0944
441.4999	0.1002
441.703	0.1016
441.9062	0.1029
442.1093	0.101
442.3124	0.0914
442.5155	0.0987
442.7185	0.0871
442.9216	0.0886
443.1246	0.0899
443.3276	0.0928
443.5307	0.0839
443.7337	0.076
443.9366	0.0873
444.1396	0.0771
444.3426	0.0812
444.5455	0.0831
444.7484	0.0854
444.9513	0.0765
445.1542	0.0835
445.3571	0.081
445.56	0.0566
445.7628	0.0724
445.9657	0.0788
446.1685	0.0739
446.3713	0.0716
446.5741	0.0778
446.7769	0.0753
446.9797	0.0657
447.1824	0.0707
447.3852	0.0604
447.5879	0.0516
447.7906	0.0507
447.9933	0.0644
448.196	0.0689
448.3986	0.0596
448.6013	0.0505
448.8039	0.061
449.0066	0.0633
449.2092	0.0615
449.4118	0.0466
449.6143	0.0574
449.8169	0.0475
450.0195	0.0507
450.222	0.047
450.4245	0.0549
450.627	0.0475
450.8295	0.0458
451.032	0.0479
451.2345	0.0327
451.4369	0.0518
451.6394	0.0461
451.8418	0.0442
452.0442	0.0453
452.2466	0.0397
452.449	0.0424
452.6513	0.0347
452.8537	0.04
453.056	0.0381
453.2583	0.0457
453.4607	0.0327
453.663	0.0319
453.8652	0.0253
454.0675	0.043
454.2697	0.0351
454.472	0.0276
454.6742	0.0252
454.8764	0.0367
455.0786	0.0276
455.2808	0.0272
455.4829	0.0356
455.6851	0.0301
455.8872	0.0252
456.0893	0.0271
456.2915	0.0353
456.4935	0.0396
456.6956	0.0232
456.8977	0.0281
457.0997	0.0379
457.3018	0.0215
457.5038	0.0299
457.7058	0.0246
457.9078	0.0273
458.1098	0.0234
458.3117	0.0311
458.5137	0.0069
458.7156	0.0257
458.9175	0.0243
459.1194	0.0238
459.3213	0.0231
459.5232	0.0301
459.725	0.0233
459.9269	0.029
460.1287	0.0192
460.3305	0.0266
460.5323	0.0188
460.7341	0.0189
460.9359	0.007
461.1376	0.0185
461.3394	0.0159
461.5411	0.021
461.7428	0.021
461.9445	0.02
462.1462	0.013
462.3479	0.0067
462.5495	0.0289
462.7512	0.0231
462.9528	0.0125
463.1544	0.0069
463.356	0.0069
463.5576	0.0206
463.7592	0.0156
463.9607	0.0188
464.1623	0.0149
464.3638	0.0085
464.5653	0.0126
464.7668	0.0176
464.9683	0.0125
465.1697	0.0133
465.3712	0.0043
465.5726	0.0189
465.7741	0.0173
465.9755	0.0106
466.1769	0.0133
466.3782	0.0131
466.5796	0.0147
466.7809	0.0207
466.9823	0.011
467.1836	0.012
467.3849	0.011
467.5862	0.006
467.7875	0.0075
467.9887	0.0163
468.19	0.007
468.3912	0.0087
468.5924	0.0198
468.7936	0.0113
468.9948	0.0088
469.196	0.0016
469.3972	0.0035
469.5983	0.0124
469.7994	0.0145
470.0006	0.0154
470.2017	0.0066
470.4027	0.0269
470.6038	0.0057
470.8049	0.0044
471.0059	0.013
471.2069	0.0102
471.408	0.0176
471.6089	0.0059
471.8099	0.0101
472.0109	0.009
472.2119	0.0131
472.4128	0.0109
472.6137	0.0076
472.8146	0.0124
473.0155	0.0145
473.2164	0.0127
473.4173	0.0057
473.6181	0.0087
473.819	0.009
474.0198	-0.0018
474.2206	-0.0017
474.4214	0.0132
474.6222	-0.0077
474.8229	0.0001
475.0237	0.0173
475.2244	0.0154
475.4251	0.0042
475.6258	0.0045
475.8265	0.0153
476.0272	0.0087
476.2278	0.0043
476.4285	0.0091
476.6291	0.0076
476.8297	0.0033
477.0303	0.0077
477.2309	0.0107
477.4315	0.0082
477.632	0.0049
477.8326	0.0041
478.0331	0.0118
478.2336	0.0037
478.4341	0.008
478.6346	0.0086
478.8351	0.0029
479.0355	0.0108
479.236	0.0142
479.4364	0.0066
479.6368	0.0066
479.8372	0.0075
480.0376	0.0066
480.2379	0.0138
480.4383	0.0076
480.6386	-0.001
480.8389	0.0119
481.0392	0.006
481.2395	0.0139
481.4398	0.0121
481.6401	0.0043
481.8403	0.0104
482.0405	0.0129
482.2408	0.0063
482.441	0.0029
482.6411	0.0082
482.8413	-0.0015
483.0415	0.017
483.2416	0.0131
483.4417	0.006
483.6419	0.0041
483.8419	0.0067
484.042	0.013
484.2421	0.0036
484.4422	0.0024
484.6422	0.0082
484.8422	0.0047
485.0422	0.0074
485.2422	0.0061
485.4422	0.0032
485.6422	-0.0008
485.8421	0.0048
486.042	0.0091
486.242	0.005
486.4419	0.0075
486.6417	0.001
486.8416	0.0023
487.0415	-0.0039
487.2413	0.0025
487.4411	0.0082
487.641	0.0074
487.8408	0.0049
488.0405	0.0157
488.2403	0.0049
488.4401	0.0074
488.6398	0.0053
488.8395	0.0074
489.0392	0.0045
489.2389	0.0121
489.4386	-0.0004
489.6383	0.0091
489.8379	-0.004
490.0376	0.005
490.2372	0
490.4368	-0.0012
490.6364	0.0014
490.836	0.0025
491.0355	0.0002
491.2351	-0.0067
491.4346	0.0032
491.6341	0.0002
491.8336	0.0102
492.0331	0.0078
492.2326	0.0057
492.432	0.0009
492.6315	0.0071
492.8309	0.0088
493.0303	0.0057
493.2297	0.0047
493.4291	-0.0012
493.6284	0.0118
493.8278	0.0092
494.0271	0.0027
494.2264	-0.008
494.4257	0.0121
494.625	0.0094
494.8243	0.0041
495.0236	0.0073
495.2228	-0.0003
495.422	0.007
495.6213	0.0068
495.8205	0.004
496.0196	0.0089
496.2188	0.0096
496.418	0.0051
496.6171	0.0066
496.8162	0.0114
497.0153	0.0087
497.2144	0.0063
497.4135	0.0061
497.6126	0.0039
497.8116	0.0048
498.0107	0.0123
498.2097	0.0074
498.4087	0.0039
498.6077	-0.0056
498.8067	0.0101
499.0056	0.0066
499.2046	0.011
499.4035	0.0082
499.6024	0.0027
499.8013	0.0098
500.0002	0.0088
500.199	0.0053
500.3979	0.0095
500.5967	0.0111
500.7956	0.0146
500.9944	0.0101
501.1932	0.0153
501.3919	0.0076
501.5907	0.012
501.7895	0.0002
501.9882	0.0051
502.1869	0.0114
502.3856	0.0031
502.5843	0.0048
502.783	0.001
502.9816	0.0092
503.1803	0.0069
503.3789	0.0117
503.5775	-0.0017
503.7761	0.0013
503.9747	0.0118
504.1732	0.0053
504.3718	0.0191
504.5703	0.0083
504.7689	-0.0043
504.9674	0.0068
505.1658	0.0062
505.3643	0.0042
505.5628	0.0083
505.7612	0.0083
505.9597	0.0006
506.1581	-0.0012
506.3565	0.0042
506.5549	0.0094
506.7532	0.0006
506.9516	0.0161
507.1499	0.0038
507.3482	0.0037
507.5465	0.0071
507.7448	0.0023
507.9431	0.0132
508.1414	0.0001
508.3396	0.0146
508.5379	0.0001
508.7361	0.0152
508.9343	0.0094
509.1325	0.016
509.3306	0.0001
509.5288	-0.0049
509.7269	0.0063
509.9251	0.0066
510.1232	0.0074
510.3213	-0.0021
510.5193	0.0026
510.7174	0.0036
510.9154	0.0131
511.1135	0.0104
511.3115	0.0043
511.5095	0.0127
511.7075	0.0072
511.9055	0.0104
512.1034	0.0035
512.3014	-0.004
512.4993	0.0141
512.6972	-0.0025
512.8951	0.0086
513.093	0.0067
513.2908	0.0208
513.4887	0.0157
513.6865	0.0018
513.8844	0.0137
514.0822	0.0074
514.2799	0.0001
514.4777	0.0038
514.6755	-0.0016
514.8732	0.0097
515.0709	0.0039
515.2687	0.0086
515.4664	0.0153
515.664	0.0032
515.8617	0.0186
516.0594	0.0136
516.257	0.0065
516.4546	0.0213
516.6522	0.0052
516.8498	0.009
517.0474	0.0073
517.2449	0.0027
517.4425	0.0086
517.64	0.0082
517.8375	0.0129
518.035	0.0076
518.2325	-0.0006
518.43	0.0056
518.6274	0.0107
518.8249	0.0014
519.0223	0.0165
519.2197	0.006
519.4171	0.0076
519.6145	0.0065
519.8118	-0.0081
520.0092	0.0039
520.2065	0.0268
520.4038	0.008
520.6011	0.0205
520.7984	0.0171
520.9956	0.0131
521.1929	0.004
521.3901	0.0029
521.5874	0.0076
521.7846	-0.0026
521.9818	0.0048
522.1789	0.0007
522.3761	0.0115
522.5732	0.0021
522.7704	-0.0013
522.9675	-0.0047
523.1646	-0.0041
523.3617	0.0094
523.5587	0.0089
523.7558	0.0004
523.9528	0.0094
524.1498	0.0008
524.3468	-0.0005
524.5438	0.0098
524.7408	-0.0033
524.9378	0.009
525.1347	0.0084
525.3316	0.0021
525.5285	0.0064
525.7254	0.0142
525.9223	0.0134
526.1192	0.0117
526.316	0.0072
526.5129	0.0015
526.7097	0.0013
526.9065	0.0094
527.1033	0.0048
527.3	-0.0009
527.4968	0.0052
527.6935	-0.0038
527.8903	0.0017
528.087	0.0033
528.2837	0.0127
528.4804	0.0046
528.677	0.0007
528.8737	0.0018
529.0703	-0.0008
529.2669	0.0104
529.4635	0.0087
529.6601	-0.0038
529.8567	0.0074
530.0532	0.0033
530.2498	-0.0086
530.4463	-0.0085
530.6428	0.0073
530.8393	0.0038
531.0358	-0.0011
531.2322	-0.0093
531.4287	0.011
531.6251	-0.0069
531.8215	-0.0062
532.0179	0.0128
532.2143	0.0081
532.4107	0.0127
532.607	-0.0034
532.8034	0.0058
532.9997	-0.0049
533.196	0.0052
533.3923	0.0061
533.5886	0.0182
533.7848	0.005
533.9811	0.0021
534.1773	0.0043
534.3735	0.0062
534.5697	0.003
534.7659	0.002
534.9621	0.0048
535.1582	0.009
535.3544	0.01
535.5505	0.0098
535.7466	0.0082
535.9427	0.0048
536.1387	-0.0008
536.3348	0.0044
536.5308	-0.0031
536.7269	-0.0012
536.9229	0.0063
537.1189	0.0168
537.3148	0.0042
537.5108	0.007
537.7068	0.0134
537.9027	-0.0075
538.0986	0.013
538.2945	0.0009
538.4904	0.005
538.6863	0.0006
538.8821	0.009
539.078	0.0095
539.2738	0.0044
539.4696	-0.0005
539.6654	0.0022
539.8611	0.0023
540.0569	0.0011
540.2526	0.008
540.4484	-0.0063
540.6441	-0.0027
540.8398	0.0111
541.0355	0.001
541.2311	0.0109
541.4268	0.0182
541.6224	0.0084
541.818	0.0002
542.0136	0.0107
542.2092	0.0089
542.4048	0.0053
542.6003	-0.0015
542.7959	0.0167
542.9914	0.0017
543.1869	0.0015
543.3824	0.0059
543.5779	0.0108
543.7734	0.0096
543.9688	0.0102
544.1642	0.0025
544.3596	0.0139
544.555	0.0084
544.7504	0.0088
544.9458	0.0055
545.1411	0.007
545.3365	0.0097
545.5318	0.01
545.7271	0.0073
545.9224	0.001
546.1177	0.0126
546.3129	0.0015
546.5081	0.0071
546.7034	0.0029
546.8986	0.0064
547.0938	0.0045
547.289	0.0094
547.4841	0.0095
547.6793	0.0088
547.8744	0.0113
548.0695	-0.0007
548.2646	0.0089
548.4597	0.0084
548.6548	0.0154
548.8498	0.0103
549.0448	0.005
549.2399	0.0169
549.4349	0.0118
549.6298	0.0172
549.8248	0.0051
550.0198	0.0192
550.2147	0.0095
550.4096	-0.0063
550.6045	0.0028
550.7994	-0.003
550.9943	0.0005
551.1892	-0.0035
551.384	0.0159
551.5788	0.0115
551.7737	0.0082
551.9685	0.0071
552.1632	0.0038
552.358	0.007
552.5528	0.0022
552.7475	0.0023
552.9422	0.0073
553.1369	0.0106
553.3316	0.0094
553.5263	0.0036
553.7209	0.0065
553.9156	0.01
554.1102	0.0096
554.3048	-0.006
554.4994	0.0039
554.694	0.0072
554.8885	0.0084
555.0831	0.0132
555.2776	0.0097
555.4721	0.0048
555.6666	0.0126
555.8611	0.0016
556.0555	0.0052
556.25	0.0137
556.4444	0.0144
556.6388	0.0021
556.8332	0.0006
557.0276	0.0089
557.222	0.0013
557.4163	0.007
557.6107	0.0038
557.805	-0.0025
557.9993	-0.0013
558.1936	0.0044
558.3879	0.0083
558.5821	-0.0032
558.7764	0.0012
558.9706	0.0014
559.1648	0.0164
559.359	0.0015
559.5532	0.0052
559.7473	-0.0022
559.9415	0.0086
560.1356	0.0134
560.3297	-0.0006
560.5238	0.0033
560.7179	-0.004
560.9119	0.0077
561.106	-0.0002
561.3	0.0016
561.494	-0.0038
561.688	0.0023
561.882	0.0072
562.076	0.0009
562.2699	0.0138
562.4639	0.0148
562.6578	0.001
562.8517	0.0006
563.0456	0.0152
563.2395	0.0089
563.4333	0.0023
563.6272	0.0086
563.821	0.0019
564.0148	0.0046
564.2086	0.0091
564.4024	0.0151
564.5961	0.0028
564.7899	0.0154
564.9836	0.0004
565.1773	0.0113
565.371	0.0026
565.5647	0.0065
565.7584	0.0188
565.952	0.0088
566.1456	0.0014
566.3393	0.0057
566.5329	0.0006
566.7264	0.0052
566.92	0.0005
567.1136	-0.0027
567.3071	-0.0031
567.5006	0.0163
567.6941	0.006
567.8876	0.0007
568.0811	0.0201
568.2745	-0.0027
568.468	0.0074
568.6614	0.0141
568.8548	0.0087
569.0482	0.0053
569.2416	0.0123
569.4349	-0.002
569.6283	0.0057
569.8216	0.0087
570.0149	0.0009
570.2082	0.0092
570.4015	0.0049
570.5947	0.0027
570.788	0.0053
570.9812	0.003
571.1744	0.0084
571.3676	-0.0004
571.5608	0.0018
571.754	0.0122
571.9471	0.013
572.1402	0.0061
572.3333	0.0033
572.5264	0.0101
572.7195	0.0041
572.9126	0.0069
573.1057	0.0063
573.2987	-0.0027
573.4917	0.003
573.6847	0.0038
573.8777	0.0088
574.0707	0.0024
574.2636	0.0086
574.4566	-0.0006
574.6495	0.0027
574.8424	0.0074
575.0353	0.0088
575.2281	0.0055
575.421	0.0013
575.6138	0.0026
575.8067	0.0093
575.9995	0.0009
576.1923	0.0113
576.385	0.005
576.5778	0.0081
576.7706	0.0011
576.9633	0.0063
577.156	0.0016
577.3487	0.0059
577.5414	0.0029
577.734	0.0035
577.9267	0.0104
578.1193	0.0083
578.3119	0.0015
578.5045	-0.0007
578.6971	0.0034
578.8897	-0.001
579.0822	0.0073
579.2747	0.0042
579.4673	-0.0007
579.6598	0.0051
579.8522	0.0025
580.0447	0.0058
580.2372	0.008
580.4296	0.0072
580.622	-0.0007
580.8144	0.006
581.0068	0.0058
581.1992	0.0049
581.3915	0.0001
581.5839	0.0053
581.7762	0.0024
581.9685	0.005
582.1608	0.0034
582.353	0.0031
582.5453	0.0102
582.7375	0.0061
582.9298	-0.0012
583.122	0
583.3142	0.0059
583.5063	0.0068
583.6985	0.0026
583.8906	0.0089
584.0827	0.0032
584.2749	0.0045
584.4669	0.0053
584.659	0.0059
584.8511	0.0096
585.0431	0.0056
585.2352	0.0035
585.4272	0.0024
585.6192	0.0038
585.8111	0.0016
586.0031	0.0041
586.195	0.0038
586.387	0.0008
586.5789	0.0075
586.7708	0.01
586.9627	0.0082
587.1545	0.0029
587.3464	0.004
587.5382	0.0025
587.73	0.01
587.9218	0.0055
588.1136	0.0029
588.3053	0.0037
588.4971	0.0013
588.6888	0.0051
588.8805	0.0042
589.0722	0.0127
589.2639	0.0085
589.4556	0.0051
589.6472	0.0122
589.8389	0.0071
590.0305	-0.0003
590.2221	0.0057
590.4137	-0.0035
590.6052	0.0015
590.7968	0.0106
590.9883	0.0045
591.1798	0.0078
591.3713	0.0052
591.5628	0.0056
591.7543	0.0022
591.9458	0.0029
592.1372	0.0054
592.3286	0.0018
592.52	0.0055
592.7114	0.004
592.9028	0.0095
593.0941	-0.0008
593.2855	-0.0004
593.4768	0.012
593.6681	0.0069
593.8594	0.0053
594.0506	0.0053
594.2419	0.0028
594.4331	0.0047
594.6244	-0.0058
594.8156	0.0003
595.0067	-0.0003
595.1979	-0.0003
595.3891	0.0056
595.5802	0.008
595.7713	0.0015
595.9624	0.0067
596.1535	0.0014
596.3446	0.0032
596.5357	0.0093
596.7267	0.0044
596.9177	0.0024
597.1087	0.004
597.2997	0.0065
597.4907	0.0025
597.6817	0.0065
597.8726	0.0093
598.0635	0.0013
598.2544	0.0122
598.4453	0.0047
598.6362	0.0087
598.827	0.0029
599.0179	0.0033
599.2087	0.0069
599.3995	0.0088
599.5903	0.0093
599.7811	0.0111
599.9718	0.0008
600.1626	0.0015
600.3533	-0.0027
600.544	0.0074
600.7347	0.0015
600.9254	0.009
601.116	0.0066
601.3067	-0.0003
601.4973	0.0083
601.6879	0.005
601.8785	0.0087
602.0691	0.0014
602.2596	0.0073
602.4502	0.0071
602.6407	0.0062
602.8312	0.0084
603.0217	0.0051
603.2122	0.0028
603.4027	0.0036
603.5931	0.003
603.7835	0.0108
603.9739	0.0054
604.1643	0.0086
604.3547	0.0039
604.5451	0.0046
604.7354	0.0003
604.9257	0.0065
605.116	0.0006
605.3063	-0.0005
605.4966	0.0049
605.6869	0.007
605.8771	0.0081
606.0673	0.0065
606.2575	0.0054
606.4477	0.0088
606.6379	0.0049
606.8281	0.0027
607.0182	0.0081
607.2083	0.0051
607.3985	0.0014
607.5885	0.0086
607.7786	0.002
607.9687	0.0074
608.1587	0.0043
608.3488	0.004
608.5388	0.0006
608.7288	0.003
608.9187	0.0036
609.1087	0.0118
609.2986	0.0092
609.4886	0.0027
609.6785	0.0001
609.8684	0.0008
610.0582	0.0038
610.2481	0.0016
610.4379	0.0065
610.6278	0.0068
610.8176	0.0116
611.0074	0.0018
611.1971	0.0068
611.3869	0.0061
611.5766	-0.0024
611.7664	0.0099
611.9561	0.0075
612.1458	0.0018
612.3354	0.0017
612.5251	0.0007
612.7147	0.006
612.9044	-0.0018
613.094	0.0069
613.2836	-0.0013
613.4731	0.0001
613.6627	0.0121
613.8522	0.0111
614.0417	0.0087
614.2313	0.0064
614.4207	0.0047
614.6102	0.0072
614.7997	0.0081
614.9891	0.0078
615.1785	-0.0005
615.3679	0.0053
615.5573	-0.0005
615.7467	0.0027
615.9361	-0.0006
616.1254	0.0124
616.3147	0.0117
616.504	0.0012
616.6933	0.0046
616.8826	0.0074
617.0718	0.0092
617.2611	0.0054
617.4503	-0.0024
617.6395	0.0085
617.8287	0.0068
618.0179	0.0008
618.207	0.0159
618.3961	-0.0054
618.5853	-0.0012
618.7744	0.0101
618.9634	0.0105
619.1525	0.006
619.3416	0.0042
619.5306	0.0138
619.7196	0.0059
619.9086	-0.0042
620.0976	0.0014
620.2866	0.0124
620.4755	0.011
620.6645	0.0137
620.8534	0.0079
621.0423	0.0039
621.2312	-0.0031
621.42	0.009
621.6089	0.0024
621.7977	0.0124
621.9865	0.0101
622.1753	-0.0009
622.3641	-0.0032
622.5529	-0.0055
622.7416	-0.0026
622.9303	0.0019
623.1191	0.0159
623.3078	0.0004
623.4964	0.0106
623.6851	0.0066
623.8737	-0.0053
624.0624	-0.0081
624.251	0.0026
624.4396	0.0034
624.6282	0.0138
624.8167	0.0037
625.0053	0.009
625.1938	0.0017
625.3823	0.0105
625.5708	0.0014
625.7593	-0.0014
625.9477	0.0075
626.1362	0.0015
626.3246	0.0035
626.513	0.0016
626.7014	0.0086
626.8898	0.009
627.0781	-0.0042
627.2665	0.0161
627.4548	-0.0074
627.6431	0.0108
627.8314	0.009
628.0197	0.0189
628.2079	0.0079
628.3962	0.0048
628.5844	0.0024
628.7726	0.0055
628.9608	0.0031
629.1489	0.0143
629.3371	-0.0085
629.5252	0.0104
629.7134	-0.0029
629.9015	0.0085
630.0895	-0.0056
630.2776	0.0049
630.4657	0.0146
630.6537	0.0114
630.8417	-0.0087
631.0297	-0.0006
631.2177	0.0041
631.4057	0.0008
631.5936	-0.0026
631.7815	0.0107
631.9695	0.0071
632.1574	0.0149
632.3452	0.0108
632.5331	0.0044
632.7209	0.0084
632.9088	0.0005
633.0966	0.0084
633.2844	0.0097
633.4722	0.0052
633.6599	0.0215
633.8477	0.0092
634.0354	0.0054
634.2231	-0.0083
634.4108	0.0026
634.5985	0.0042
634.7861	0.0109
634.9738	-0.0097
635.1614	0
635.349	-0.0032
635.5366	0.0049
635.7242	0.0094
635.9117	0.0138
636.0993	0.0061
636.2868	-0.0017
636.4743	0.0071
636.6618	-0.0134
636.8492	0.0131
637.0367	-0.0127
637.2241	0.0026
637.4115	0.0255
637.5989	-0.0042
637.7863	0.0156
637.9737	-0.0042
638.161	0.0082
638.3484	-0.0107
638.5357	0.0033
638.723	0.0336
638.9103	-0.0091
639.0975	-0.0122
639.2848	0.0098
639.472	0.0158
639.6592	-0.0146
639.8464	-0.0064
640.0336	0.0023
640.2208	0.0129
640.4079	-0.0096
640.595	-0.0032
640.7821	0.0164
640.9692	-0.0138
641.1563	0.0026
641.3434	0.0218
641.5304	0.0218
641.7174	0.0031
641.9044	0.0139
642.0914	0.0176
642.2784	0.0046
642.4653	-0.011
642.6523	0.0142
642.8392	-0.0044
643.0261	0.008
643.213	-0.0083
643.3999	0.0115
643.5867	0.0166
643.7735	-0.0093
643.9604	0.0136
644.1472	-0.0068
644.3339	-0.0011
644.5207	0.004
644.7075	0.0104
644.8942	-0.0037
645.0809	0.0026
645.2676	-0.0158
645.4543	0.0003
645.6409	0.0112
645.8276	0.0076
646.0142	-0.0153
646.2008	0.0326
646.3874	0.0003
646.574	-0.011
646.7605	0.012
646.9471	-0.0049
647.1336	-0.0313
647.3201	0.0132
647.5066	0.0092
647.6931	0.0152
647.8795	0.0129
648.0659	-0.0029
648.2524	0.0221
648.4388	0.0033
648.6252	0.0199
648.8115	-0.0056
648.9979	0.0051
649.1842	0.0075
649.3705	0.0123
649.5568	-0.0178
649.7431	-0.0034
649.9294	-0.0059
650.1156	0.003
650.3018	0.0005
650.488	-0.0032
650.6742	0.032
650.8604	0.0156
651.0466	-0.0082
651.2327	0.0109
651.4188	0.0091
651.6049	0.023
651.791	0.0091
651.9771	0.0104
652.1632	-0.0039
652.3492	0.0057
652.5352	0.0155
652.7212	0.0209
652.9072	-0.0036
653.0932	0.0237
653.2791	0.0159
653.465	-0.0031
653.651	-0.001
653.8369	0.0029
654.0227	0.0011
654.2086	0.0178
654.3944	0.0145
654.5803	0.0123
654.7661	0.0026
654.9519	0.0006
655.1377	0.0001
655.3234	0.0001
655.5092	0.0001
655.6949	0.0001
655.8806	0.0001
656.0663	0.0001
656.2519	0.0001
656.4376	0.0001
656.6232	0.0001
656.8088	0.0001
656.9945	0.0001
657.18	0.0001
657.3656	0.0001
657.5511	0.0001
657.7367	0.0001
657.9222	0.0001
658.1077	0.0001
658.2932	0.0001
658.4786	0.0001
658.6641	0.0001
658.8495	0.0001
659.0349	0.0001
659.2203	0.0001
659.4057	0.0001
659.591	0.1366
659.7764	0.0278
659.9617	0.0146
660.147	-0.0013
660.3323	-0.0052
660.5176	0.0242
660.7028	-0.0087
660.888	-0.0074
661.0733	0.0199
661.2585	0.0008
661.4436	0.0044
661.6288	0.008
661.8139	-0.0079
661.9991	-0.0079
662.1842	0.0048
662.3693	0.0112
662.5544	0.0305
662.7394	0.021
662.9245	0.0269
663.1095	-0.0062
663.2945	-0.0171
663.4795	-0.0002
663.6644	0.0061
663.8494	0.0208
664.0343	0.0096
664.2193	0.0019
664.4042	0.0168
664.589	0.0114
664.7739	0.0142
664.9587	-0.0119
665.1436	-0.0092
665.3284	-0.0002
665.5132	-0.0032
665.698	0.0091
665.8827	0.0375
666.0675	-0.0185
666.2522	0.0063
666.4369	-0.0074
666.6216	0.0031
666.8063	0.0219
666.9909	0.0061
667.1756	-0.0225
667.3602	-0.0036
667.5448	0.0082
667.7294	0.0189
667.9139	-0.0065
668.0985	0.0093
668.283	-0.005
668.4675	0.0234
668.652	0.0164
668.8365	-0.0082
669.0209	0.0104
669.2054	0.0252
669.3898	0.0022
669.5742	0.0157
669.7586	0.0103
669.943	0.0212
670.1273	0.0022
670.3117	0.0162
670.496	0.0157
670.6803	0.0089
670.8646	-0.0308
671.0488	0.026
671.2331	-0.0145
671.4173	0.012
671.6015	-0.0031
671.7857	0.012
671.9699	-0.0037
672.1541	0.0095
672.3382	0.0014
672.5223	0.0245
672.7064	-0.0009
672.8905	-0.0052
673.0746	0.0212
673.2587	0.0238
673.4427	0.0079
673.6267	0.0224
673.8107	0.0413
673.9947	-0.0045
674.1787	0.0061
674.3626	-0.012
674.5465	0.0285
674.7304	0.0072
674.9143	0.0154
675.0982	-0.0094
675.2821	0.0186
675.4659	-0.011
675.6497	0.0232
675.8335	-0.0187
676.0173	-0.0027
676.2011	0.0109
676.3849	0.0064
676.5686	0.0175
676.7523	-0.0212
676.936	-0.0047
677.1197	0.0022
677.3034	0.0336
677.487	0.0169
677.6706	0.004
677.8542	0.0039
678.0378	0.0091
678.2214	0.0056
678.405	0.0028
678.5885	0.0136
678.772	0.0143
678.9555	-0.0068
679.139	0.014
679.3225	0.0061
679.5059	0.0054
679.6894	0.0079
679.8728	0.0054
680.0562	-0.0051
680.2395	0.0086
680.4229	0.0028
680.6062	0.0007
680.7896	-0.016
680.9729	0.0112
681.1562	0.0033
681.3394	0.011
681.5227	0.0005
681.7059	0.0165
681.8891	0.0127
682.0723	0.0132
682.2555	0.0022
682.4387	-0.0013
682.6218	0.0204
682.805	0.0278
682.9881	0.034
683.1712	0.0057
683.3542	0.0143
683.5373	0.0099
683.7203	0.0025
683.9034	-0.0226
684.0864	0.0154
684.2694	-0.0027
684.4523	0.0183
684.6353	0.0056
684.8182	-0.0124
685.0011	0.0124
685.184	-0.002
685.3669	0.0154
685.5498	0.0084
685.7326	-0.006
685.9154	-0.0004
686.0982	0.0189
686.281	-0.0105
686.4638	0.0072
686.6465	0.0004
686.8293	-0.0091
687.012	0.013
687.1947	0.0068
687.3774	0.0102
687.56	-0.006
687.7427	-0.0005
687.9253	0
688.1079	0.0006
688.2905	0.0031
688.4731	0.0163
688.6556	0.0051
688.8382	-0.0154
689.0207	0.0117
689.2032	0.0107
689.3857	-0.0096
689.5681	0.0084
689.7506	0.0199
689.933	-0.0289
690.1154	-0.0011
690.2978	0.0011
690.4802	0.0243
690.6626	0.0101
690.8449	0.0214
691.0272	-0.0058
691.2095	-0.008
691.3918	0.0115
691.5741	0.0158
691.7563	0.0048
691.9386	0.0338
692.1208	0.0124
692.303	0.0018
692.4852	0.0108
692.6673	0.004
692.8495	-0.0053
693.0316	0.0051
693.2137	0.0126
693.3958	0.0161
693.5778	0.0086
693.7599	0.0124
693.9419	-0.02
694.1239	0.0094
694.3059	0.013
694.4879	-0.018
694.6699	-0.0158
694.8518	0.0212
695.0337	0.02
695.2157	0.0098
695.3975	0.0081
695.5794	-0.0095
695.7613	0.006
695.9431	-0.0082
696.1249	0.014
696.3067	-0.0044
696.4885	0.008
696.6703	0.0036
696.852	0.0012
697.0337	0.0174
697.2154	0.0142
697.3971	0.0172
697.5788	0.0242
697.7605	-0.0005
697.9421	0.0137
698.1237	0.0315
698.3053	0.0038
698.4869	0.0024
698.6685	-0.0126
698.85	0.0112
699.0315	-0.0098
699.213	0.0068
699.3945	-0.0077
699.576	0.0277
699.7575	0.0309
699.9389	0.0012
700.1203	-0.0035
700.3017	0.0068
700.4831	0.0184
700.6645	0.0283
700.8458	-0.0015
701.0271	0.0376
701.2084	0.0083
701.3897	0.0171
701.571	-0.0071
701.7523	0.0245
701.9335	0.0031
702.1147	0.0153
702.2959	0.0009
702.4771	0.0229
702.6583	-0.0053
702.8394	0.0072
703.0205	0.0216
703.2016	-0.0099
703.3827	0.0078
703.5638	0.0069
703.7449	0.0112
703.9259	0.0204
704.1069	-0.0093
704.2879	0.0111
704.4689	0.0071
704.6499	0.0297
704.8308	0.02
705.0117	0.0334
705.1927	-0.0187
705.3735	0.002
705.5544	0.0174
705.7353	0.0005
705.9161	-0.0254
706.0969	0.0126
706.2777	0.0148
706.4585	-0.0099
706.6393	0.0149
706.82	0.0065
707.0007	0.0009
707.1815	0.0062
707.3621	0.0441
707.5428	0.0239
707.7235	0.002
707.9041	0.0299
708.0847	0.0132
708.2653	0.036
708.4459	-0.0023
708.6265	-0.0122
708.807	0.0102
708.9875	0.0008
709.168	-0.0197
709.3485	0.0272
709.529	0.0014
709.7095	-0.0276
709.8899	-0.001
710.0703	0.0044
710.2507	0.006
710.4311	-0.0146
710.6115	0.0291
710.7918	0.0344
710.9721	-0.0106
711.1524	-0.0188
711.3327	-0.0093
711.513	-0.0102
711.6932	0.0081
711.8735	0.0077
712.0537	-0.0048
712.2339	0.0037
712.4141	0.033
712.5942	-0.0093
712.7744	0.0182
712.9545	0.0226
713.1346	0.0255
713.3147	0.0048
713.4947	-0.0041
713.6748	0.0019
713.8548	0.0089
714.0348	0.0359
714.2148	0.0031
714.3948	0.0149
714.5748	0.0196
714.7547	0.0164
714.9346	0.0142
715.1145	-0.0232
715.2944	-0.0029
715.4743	0.0154
715.6541	-0.0017
715.834	0.0205
716.0138	0.024
716.1936	0.0038
716.3733	-0.0064
716.5531	-0.0142
716.7328	0.0052
716.9126	0.0275
717.0923	-0.0053
717.2719	0.0176
717.4516	0.0004
717.6312	-0.0066
717.8109	0.0299
717.9905	0.0322
718.1701	0.0277
718.3496	-0.0066
718.5292	0
718.7087	0.011
718.8882	0.0183
719.0677	-0.0018
719.2472	0.0037
719.4267	0.0159
719.6061	-0.0114
719.7856	0.0291
719.965	0.0111
720.1443	0.0095
720.3237	-0.0031
720.5031	0.0081
720.6824	0.0131
720.8617	0.0133
721.041	0.0444
721.2203	-0.0012
721.3995	0.0113
721.5788	-0.0054
721.758	-0.0123
721.9372	-0.0044
722.1164	-0.0072
722.2956	0.0067
722.4747	0.0018
722.6538	0.0112
722.8329	0.0391
723.012	-0.0042
723.1911	-0.0008
723.3702	0.0187
723.5492	0.0065
723.7282	-0.0034
723.9072	0.0117
724.0862	0.0054
724.2652	0.0202
724.4441	0.0124
724.623	0.011
724.8019	0.019
724.9808	0.0196
725.1597	-0.014
725.3385	0.0134
725.5174	-0.0003
725.6962	-0.0034
725.875	0.0124
726.0538	0.0316
726.2325	0.0218
726.4112	-0.0147
726.59	0.0106
726.7687	-0.0028
726.9474	0.0263
727.126	0.0155
727.3047	-0.0062
727.4833	0.0031
727.6619	0.0113
727.8405	0.0118
728.0191	0.022
728.1976	-0.0073
728.3762	-0.005
728.5547	0.0278
728.7332	0.0158
728.9116	0.0241
729.0901	-0.005
729.2686	0.007
729.447	-0.0094
729.6254	-0.0015
729.8038	-0.004
729.9821	-0.0215
730.1605	0.0169
730.3388	0.0037
730.5171	0.011
730.6954	-0.0127
730.8737	-0.0033
731.0519	0.0031
731.2302	0.0333
731.4084	-0.0027
731.5866	0.0064
731.7648	0.01
731.9429	0.0248
732.1211	-0.0148
732.2992	-0.0049
732.4773	0.0009
732.6554	-0.018
732.8335	0.0085
733.0115	0.0286
733.1896	-0.0208
733.3676	0.0085
733.5456	0.0018
733.7235	-0.0048
733.9015	0.0117
734.0794	0.003
734.2574	0.0045
734.4353	0.0248
734.6131	-0.0016
734.791	-0.0102
734.9689	0.0136
735.1467	-0.0057
735.3245	0.0156
735.5023	-0.0062
735.68	-0.0176
735.8578	0.0033
736.0355	0.0157
736.2132	0.0072
736.3909	0.0078
736.5686	0.0008
736.7463	-0.026
736.9239	0.0155
737.1015	0.0181
737.2791	0.0029
737.4567	0.0225
737.6343	0.0025
737.8118	0.0291
737.9894	0.0007
738.1669	-0.0095
738.3444	0.03
738.5218	-0.0115
738.6993	0.0144
738.8767	0.0129
739.0541	-0.0064
739.2315	-0.0002
739.4089	0.0334
739.5863	-0.0044
739.7636	0.0014
739.9409	0.0148
740.1182	-0.003
740.2955	0.0248
740.4728	-0.0145
740.65	0.0047
740.8272	0.0364
741.0044	-0.0021
741.1816	0.017
741.3588	-0.0106
741.5359	-0.0029
741.7131	0.0144
741.8902	0.0156
742.0673	-0.0345
742.2444	0.0253
742.4214	0.0143
742.5985	-0.0074
742.7755	0.0031
742.9525	-0.0118
743.1295	-0.0225
743.3064	0.0044
743.4834	-0.0073
743.6603	0.0338
743.8372	-0.0406
744.0141	0.0381
744.191	0.0081
744.3678	-0.0432
744.5446	-0.0172
744.7215	-0.0131
744.8982	0.0203
745.075	0.0812
745.2518	-0.0089
745.4285	0.0437
745.6052	-0.0344
745.7819	-0.0018
745.9586	0.026
746.1353	-0.0055
746.3119	0.01
746.4885	0.0172
746.6651	-0.006
746.8417	-0.0021
747.0183	0.0158
747.1948	0.0101
747.3714	-0.0042
747.5479	0.0255
747.7244	-0.0056
747.9008	-0.0104
748.0773	0.0554
748.2537	0.0158
748.4301	0.0391
748.6065	0.0092
748.7829	-0.0394
748.9593	-0.0064
749.1356	0.0129
749.3119	0.0074
749.4882	0.0283
749.6645	0.0009
749.8408	0.0228
750.017	0.0197
750.1933	-0.014
750.3695	0.0096
750.5457	0.0124
750.7218	0.0179
750.898	0.0137
751.0741	0.0032
751.2502	0.0053
751.4263	-0.0072
751.6024	-0.0134
751.7784	-0.0073
751.9545	0
752.1305	0.0104
752.3065	0.0115
752.4825	0.0004
752.6584	0.0392
752.8344	0.0192
753.0103	-0.0021
753.1862	0.0298
753.3621	0.0143
753.5379	0.0161
753.7138	0.0021
753.8896	0.0139
754.0654	-0.0136
754.2412	-0.0089
754.417	0.0102
754.5927	0.0296
754.7685	-0.0025
754.9442	0.0338
755.1199	0.0248
755.2956	0.0054
755.4712	0.0167
755.6469	0.0126
755.8225	0.0006
755.9981	0.0041
756.1736	0.0008
756.3492	0.0174
756.5248	0.0228
756.7003	-0.0089
756.8758	0
757.0513	0.0122
757.2267	0.001
757.4022	-0.0078
757.5776	-0.0051
757.753	0.0141
757.9284	-0.0105
758.1038	0.0185
758.2791	0.0129
758.4545	0.0085
758.6298	0.0177
758.8051	0.002
758.9803	-0.0085
759.1556	-0.0016
759.3308	0.0048
759.506	-0.0024
759.6812	-0.0157
759.8564	0.0128
760.0316	-0.0039
760.2067	0.0191
760.3819	0.01
760.557	0.0028
760.732	0.0075
760.9071	0.0175
761.0821	-0.0168
761.2572	0.0109
761.4322	-0.0003
761.6072	0.0156
761.7821	-0.0236
761.9571	-0.0134
762.132	-0.0075
762.3069	0.0167
762.4818	0.0089
762.6567	0.0063
762.8316	0.0105
763.0064	0.0139
763.1812	0.0078
763.356	-0.0225
763.5308	0.0328
763.7055	-0.008
763.8803	-0.0064
764.055	0.0106
764.2297	-0.0125
764.4044	-0.0015
764.579	-0.0142
764.7537	0.0031
764.9283	-0.0068
765.1029	0.0038
765.2775	0.0156
765.4521	0.002
765.6266	-0.0028
765.8011	0
765.9756	0.0252
766.1501	-0.0075
766.3246	0.0037
766.4991	0.0107
766.6735	0.0436
766.8479	0.0038
767.0223	0.0412
767.1967	0.0409
767.371	-0.0116
767.5454	0.0276
767.7197	0.0017
767.894	-0.017
768.0683	0.0106
768.2425	0.0118
768.4168	0.003
768.591	-0.0021
768.7652	-0.0033
768.9394	-0.018
769.1135	0.0101
769.2877	0.0228
769.4618	0.029
769.6359	-0.0115
769.81	0.0288
769.984	0.0053
770.1581	0.0141
770.3321	0.0229
770.5061	-0.0134
770.6801	0.0101
770.8541	0.0031
771.028	0.0354
771.202	0.0011
771.3759	0.0126
771.5498	0.0136
771.7236	-0.0171
771.8975	0.0116
772.0713	0.0294
772.2451	-0.011
772.4189	0.0397
772.5927	-0.0245
772.7665	-0.0084
772.9402	0.0204
773.1139	0.0062
773.2876	-0.0092
773.4613	0.0328
773.635	0.0397
773.8086	0.0451
773.9822	0.0509
774.1558	0.0105
774.3294	0.0422
774.503	0.0213
774.6765	0.0497
774.8501	0.0356
775.0236	0.0817
775.1971	-0.0135
775.3705	-0.0241
775.544	-0.0009
775.7174	-0.0032
775.8908	0.0009
776.0642	0.0571
776.2376	0.0223
776.4109	-0.0297
776.5843	0.0473
776.7576	0.02
776.9309	0.0285
777.1041	-0.0299
777.2774	-0.0008
777.4506	0.0105
777.6238	-0.0052
777.797	-0.009
777.9702	0.014
778.1434	0.0229
778.3165	-0.0139
778.4896	0.0111
778.6627	0.0227
778.8358	-0.0074
779.0089	-0.0176
779.1819	0.0272
779.3549	-0.0011
779.5279	-0.0146
779.7009	0.0555
779.8739	0.0784
780.0468	0.021
780.2197	0.0177
780.3926	-0.021
780.5655	0.0128
780.7384	-0.0091
780.9112	0.0408
781.0841	0.0156
781.2569	0.0367
781.4297	-0.0116
781.6024	0.0248
781.7752	0.051
781.9479	0.0587
782.1206	-0.0109
782.2933	-0.0111
782.466	0.0038
782.6386	0.0111
782.8113	0.0408
782.9839	0.0024
783.1565	0.0332
783.329	-0.0181
783.5016	0
783.6741	0.0037
783.8466	0.0346
784.0191	0.0247
784.1916	-0.0147
784.3641	-0.0485
784.5365	-0.0171
784.7089	-0.0496
784.8813	0.0535
785.0537	0.0007
785.2261	0.0151
785.3984	0.0091
785.5707	-0.0109
785.743	0.0447
785.9153	0.0363
786.0876	-0.0097
786.2598	-0.0182
786.432	0.019
786.6042	0.0492
786.7764	-0.0292
786.9486	0.0257
787.1207	0.0497
787.2928	0.0267
787.4649	-0.0121
787.637	0.0048
787.8091	0.0095
787.9811	0.0023
788.1532	0.0212
788.3252	-0.021
788.4972	0.0118
788.6691	0.0053
788.8411	-0.0341
789.013	0.0477
789.1849	0.0204
789.3568	0.0137
789.5287	0.0697
789.7005	-0.0704
789.8723	-0.0263
790.0442	-0.0117
790.2159	0.0116
790.3877	0.0842
790.5595	-0.002
790.7312	0.0041
790.9029	-0.04
791.0746	-0.0198
791.2463	-0.0226
791.4179	0.0387
791.5896	0.0285
791.7612	0.042
791.9328	0.0089
792.1044	-0.0089
792.2759	-0.0121
792.4474	0.0289
792.619	-0.001
792.7905	-0.0022
792.9619	0.0345
793.1334	0.0604
793.3048	0.0422
793.4762	-0.0354
793.6476	-0.007
793.819	0.0027
793.9904	0.0256
794.1617	-0.0024
794.333	0.0245
794.5043	0.0164
794.6756	0.0106
794.8469	0.0206
795.0181	0.0058
795.1893	0.0264
795.3605	0.0297
795.5317	-0.0163
795.7029	0.0077
795.874	-0.0209
796.0452	0.0306
796.2163	0.0809
796.3873	0.0001
796.5584	0.0422
796.7294	0.0016
796.9005	0.0614
797.0715	-0.049
797.2425	0.0222
797.4134	0.0856
797.5844	-0.0085
797.7553	-0.0049
797.9262	0.078
798.0971	0.0235
798.2679	0.0001
798.4388	0.0439
798.6096	-0.0146
798.7804	0.0573
798.9512	0.0265
799.122	0.0362
799.2927	0.0559
799.4635	0.0016
799.6342	0.011
799.8049	0.0296
799.9755	-0.0251
800.1462	0.0168
800.3168	0.0175
800.4874	-0.0945
800.658	-0.0543
800.8286	-0.0075
800.9991	0.0518
801.1696	-0.0212
801.3402	0.058
801.5106	-0.0244
801.6811	0.022
801.8516	0.0368
802.022	-0.0128
802.1924	-0.0471
802.3628	0.0327
802.5332	0.082
802.7035	0.0913
802.8739	0.065
803.0442	-0.0217
803.2145	-0.0404
803.3847	0.0273
803.555	-0.0038
803.7252	-0.0469
803.8954	-0.0582
804.0656	-0.0014
804.2358	-0.0263
804.4059	0.0724
804.5761	0.0059
804.7462	-0.0331
804.9163	0.0227
805.0864	0.0089
805.2564	0.0002
805.4264	0.0034
805.5965	0.1011
805.7665	-0.0405
805.9364	0.0442
806.1064	0.0107
806.2763	0.0841
806.4462	0.0066
806.6161	0.0253
806.786	0.0122
806.9559	-0.0105
807.1257	-0.0284
807.2955	0.0402
807.4653	-0.0035
807.6351	0.0893
807.8048	-0.0012
807.9746	0.0257
808.1443	-0.0235
808.314	0.0107
808.4837	0.0587
808.6533	0.0033
808.8229	0.0515
808.9926	0.0505
809.1622	0.0537
809.3317	0.0071
809.5013	0.0526
809.6708	0.0531
809.8403	0.0373
810.0098	0.0295
810.1793	0.0023
810.3488	0.004
810.5182	0.0769
810.6876	-0.0018
810.857	0.0669
811.0264	0.1051
811.1958	0.1463
811.3651	-0.0227
811.5344	0.0084
811.7037	0.0876
811.873	0.0479
812.0422	-0.0964
812.2115	0.0469
812.3807	-0.111
812.5499	0.1432
812.7191	-0.1967
812.8882	-0.1243
813.0574	-0.0396
813.2265	0.003
813.3956	0.058
813.5646	0.0823
813.7337	0.0699
813.9027	0.0571
814.0718	0.082
814.2407	0.0494
814.4097	0.0836
814.5787	0.0807
814.7476	0.0797
814.9165	-0.0249
815.0854	0.0377
815.2543	-0.0136
815.4232	0.1033
815.592	0.0053
815.7608	-0.0937
815.9296	-0.0572
816.0984	-0.0032
816.2671	-0.1058
816.4359	0.1872
816.6046	-0.0404
816.7733	0.075
816.942	-0.0502
817.1106	0.2505
817.2793	-0.0055
817.4479	0.0194
817.6165	0.0134
817.785	0.0711
817.9536	-0.0098
818.1221	-0.008
818.2906	-0.1292
818.4591	0.0832
818.6276	-0.0166
818.7961	-0.0215
818.9645	0.113
819.1329	-0.032
819.3013	-0.0912
819.4697	-0.1013
819.638	-0.0384
819.8064	0.0951
819.9747	0.138
820.143	-0.0692
820.3113	0.2149
820.4795	0.0401
820.6477	0.0362
820.816	0.1308
820.9842	0.076
821.1523	0.0025
821.3205	0.036
821.4886	-0.0887
821.6567	-0.0519
821.8248	0.1076
821.9929	-0.0481
822.1609	-0.0289
822.329	-0.0228
822.497	0.0841
822.665	0.0627
822.833	0.0829
823.0009	-0.04
823.1688	-0.1012
823.3367	-0.148
823.5046	-0.0388
823.6725	0.0136
823.8404	-0.0408
824.0082	0.0812
824.176	-0.2314
824.3438	0.3131
824.5116	0.1049
824.6793	0.0841
824.847	0.0981
825.0147	0.1725
825.1824	-0.045
825.3501	0.1212
825.5177	-0.0991
825.6854	-0.1647
825.853	-0.0553
826.0206	-0.0033
826.1881	-0.0244
826.3557	0.0451
826.5232	0.1422
826.6907	0.0146
826.8582	0.0454
827.0257	0.1335
827.1931	0.092
827.3605	-0.0954
827.528	-0.1011
827.6953	-0.2275
827.8627	0.0404
828.03	0.0796
828.1974	-0.0929
828.3647	0.0399
828.532	0.0888
828.6992	-0.0479
828.8665	-0.1054
829.0337	0.0438
829.2009	-0.148
829.3681	0.0728
829.5352	-0.0076
829.7024	0.1439
829.8695	-0.0498
830.0366	0.0845
830.2037	0.2615
830.3707	0.1458
830.5378	0.2568
830.7048	-0.0479
830.8718	0.2429
831.0388	0.1298
831.2057	-0.0183
831.3727	0.1386
831.5396	0.1294
831.7065	-0.8798
831.8734	0.9131
832.0402	0.1439
832.2071	-0.2883
832.3739	-0.0635
832.5407	-1.8824
832.7075	-0.2653
832.8742	0.1992
833.041	0.4775
833.2077	0.3549
833.3744	0.0807
833.541	0.3972
833.7077	-0.0895
833.8743	0.0539
834.0409	0.0867
834.2075	0.1605
834.3741	-0.0709
834.5407	0.2796
834.7072	0.0839
834.8737	0.0559
835.0402	0.1694
835.2067	-0.0997
835.3731	-0.1488
835.5395	0.1089
835.706	-0.1596
835.8723	0.1384
836.0387	0.8648
836.2051	0.0344
836.3714	0.2411
836.5377	0.0253
836.704	0.1024
836.8703	0.5989
837.0365	-0.6044
837.2027	0.1992
837.3689	0.032
837.5351	-0.0815
837.7013	-0.0553
837.8674	-0.3306
838.0335	0.0004
838.1997	-0.1017
838.3657	-0
838.5318	0.7019
838.6978	-0.0647
838.8639	-0.3489
839.0299	0.1087
839.1958	0.2013
839.3618	0.3827
839.5277	-0.0474
839.6937	0.1641
839.8596	-0.0591
840.0254	-0.0903
840.1913	-0.3127
840.3571	-0.0971
840.523	-1.1206
840.6888	-0.0056
840.8545	-0.6389
841.0203	0.0337
841.186	0.2175
841.3517	-0.1738
841.5174	0.1351
841.6831	0.2611
841.8488	0.6913
842.0144	-0.2978
842.18	0.0245
842.3456	-0.1674
842.5112	-0
842.6767	0.1643
842.8422	0.8264
843.0077	0.4142
843.1732	-0.3445
843.3387	-0
843.5042	0.346
843.6696	-0.2882
843.835	0.5177
844.0004	-0.2976
844.1657	-0
844.3311	-0
844.4964	-0.5362
844.6617	-0
844.827	-0
844.9923	0.1563
845.1575	-0
845.3227	0.4591
845.4879	-0.2478
845.6531	0.46
845.8183	0.039
845.9834	-0
846.1485	0.0993
846.3136	-0
846.4787	-0
846.6438	-0.1154
846.8088	0.2161
846.9738	-0
847.1388	0.3534
847.3038	0.3662
847.4687	0.2514
847.6337	-0.3464
847.7986	0.3241
847.9635	0.2018
848.1284	-0
848.2932	-0.1921
848.458	-0
848.6228	0.1922
848.7876	0.0577
848.9524	-0.0573
849.1172	-0.4102
849.2819	-0
849.4466	0.2925
849.6113	0.9887
849.7759	-0
849.9406	-0.0187
850.1052	-1.1122
850.2698	-0.1301
850.4344	-0.217
850.599	-0.1951
850.7635	0.5137
850.928	-0.1232
851.0925	0.5679
851.257	-0.0493
851.4215	-0
851.5859	0.189
851.7503	-0
851.9147	-0.0536
852.0791	0.6828
852.2434	0.2379
852.4078	-0.3622
852.5721	-0
852.7364	0.2667
852.9007	0.1213
853.0649	-0
853.2291	0.5069
853.3934	-0
853.5575	-0.1196
853.7217	0.5187
853.8859	0.6267
854.05	-0.126
854.2141	0.4041
854.3782	-0.0314
854.5423	-0.1441
854.7063	0.1984
854.8703	0.63
855.0343	-0.1563
855.1983	-0.0754
855.3623	0.0268
855.5262	-0
855.6901	0.6934
855.854	0.2384
856.0179	-0.1668
856.1818	-0
856.3456	0.6995
856.5094	-0.3564
856.6732	-0.1488
856.837	-1.2362
857.0008	-0
857.1645	0.8939
857.3282	-0.548
857.4919	0.3056
857.6556	-0.3172
857.8192	-0.0508
857.9828	-0.1082
858.1465	-0.0241
858.31	-0
858.4736	-0.5789
858.6372	0.0516
858.8007	1.3628
858.9642	0.2818
859.1277	0.6415
859.2911	-0
859.4546	-0
859.618	0.5115
859.7814	0.1578
859.9448	-0.0475
860.1081	-0
860.2715	-1.5241
860.4348	0.2144
860.5981	-0
860.7614	-0
860.9246	0.0011
861.0879	-0.1579
861.2511	-0
861.4143	-0
861.5774	0.3695
861.7406	-0.0724
861.9037	0.1897
862.0668	-0
862.2299	-0
862.393	-0
862.556	-0
862.7191	-0.4148
862.8821	0.1095
863.0451	0.4447
863.208	-0.4121
863.371	-0.5782
863.5339	0.1271
863.6968	0.0833
863.8597	-0.0504
864.0225	0.5006
864.1854	0.3659
864.3482	-1.1733
864.511	0.4447
864.6737	-0
864.8365	0.3243
864.9992	-0
865.1619	-0
865.3246	-1.1931
865.4873	-0
865.65	-0.1914
865.8126	0.5836
865.9752	-0.3377
866.1378	-0.0463
866.3004	-0.2557
866.4629	-1.9015
866.6254	-0
866.7879	0.0018
866.9504	-0.5897
867.1129	0.1861
867.2753	-0.041
867.4377	-0.1405
867.6001	-0.3179
867.7625	0.0725
867.9249	-0.116
868.0872	-0.0422
868.2495	0.2453
868.4118	-0
868.5741	-0
868.7363	-0.6278
868.8986	-0
869.0608	-0
869.223	-0.4525
869.3851	-0
869.5473	0.4368
869.7094	0.5086
869.8715	-1.0423
870.0336	-0.0412
870.1957	-1.2409
870.3577	0.2466
870.5197	-0.1733
870.6817	-0.4246
870.8437	-0.2861
871.0057	0.425
871.1676	0.093
871.3295	-0.0845
871.4914	-0
871.6533	-0.1395
871.8151	-0
871.977	0.7947
872.1388	-0.1314
872.3006	-0.3067
872.4623	0.6424
872.6241	0.9443
872.7858	-0
872.9475	-0
873.1092	0.2479
873.2709	1.3513
873.4325	-1.7184
873.5941	-0.4838
873.7557	0.228
873.9173	-0.2491
874.0789	0.3445
874.2404	-0
874.4019	0.0006
874.5634	-0
874.7249	0.5416
874.8863	-0
875.0478	0.2012
875.2092	-0
875.3706	-0
875.5319	0.0276
875.6933	0.2424
875.8546	0.7659
876.0159	0.2544
876.1772	-0.1799
876.3385	-0
876.4997	-0
876.6609	-0
876.8221	-0.0909
876.9833	-0.3527
877.1445	0.2619
877.3056	-0
877.4667	0.3575
877.6278	-0
877.7889	-0.0189
877.9499	-0
878.111	-0.548
878.272	-0
878.433	0.6322
878.5939	0.1006
878.7549	-0.2459
878.9158	-0
879.0767	-0
879.2376	0.5557
879.3984	0.3967
879.5593	0.2396
879.7201	-1.5665
879.8809	0.1985
880.0417	-0.281
880.2024	0.039
880.3632	-0.3594
880.5239	-0.1772
880.6846	-0
880.8452	-0.1527
881.0059	-0.8779
881.1665	0.5611
881.3271	0.5836
881.4877	0.211
881.6483	-1.2553
881.8088	-0.27
881.9693	-1.272
882.1298	-1.272
882.2903	-1.272
