Data from D4ACN5uM440nmA_Absorbance_13-50-26-332.txt Node
Date: Fri Feb 21 13:50:26 GMT 2025
User: LASERRRRR
Spectrometer: FLMT03099
Trigger mode: 0
Integration Time (sec): 1.500000E-2
Scans to average: 1
Electric dark correction enabled: true
Nonlinearity correction enabled: false
Boxcar width: 0
XAxis mode: Wavelengths
Number of Pixels in Spectrum: 3648
>>>>>Begin Spectral Data<<<<<
179.3399	-0.1902
179.5586	-0.1902
179.7771	-0.1902
179.9957	0.3472
180.2143	-0
180.4329	0.1316
180.6514	-0
180.8699	-0
181.0885	-0
181.307	-0
181.5255	-0.0264
181.744	-0
181.9625	1.0235
182.181	-0
182.3994	-0
182.6179	0.2537
182.8363	0.2286
183.0547	0.3379
183.2732	0.153
183.4916	0.3175
183.71	0.2152
183.9284	0.0739
184.1467	0.0475
184.3651	0.3188
184.5835	0.4281
184.8018	0.0386
185.0201	0.0955
185.2385	0.2523
185.4568	0.3954
185.6751	0.0973
185.8934	0.4115
186.1117	-0.0548
186.3299	0.2614
186.5482	0.0973
186.7664	0.2317
186.9847	0.0805
187.2029	0.3603
187.4211	-0.0149
187.6393	0.5045
187.8575	0.6731
188.0757	0.9089
188.2939	0.6242
188.512	0.1908
188.7302	0.2061
188.9483	0.3334
189.1665	0.403
189.3846	0.5329
189.6027	0.2959
189.8208	0.1846
190.0389	0.4408
190.257	0.3559
190.475	0.3211
190.6931	0.2371
190.9111	0.2108
191.1292	0.1045
191.3472	0.1026
191.5652	0.5024
191.7832	0.4059
192.0012	0.2108
192.2192	0.1771
192.4371	0.2662
192.6551	0.1884
192.873	0.1787
193.091	0.2041
193.3089	0.3115
193.5268	0.2687
193.7447	0.1677
193.9626	0.2729
194.1805	0.3264
194.3984	0.2468
194.6162	0.2915
194.8341	0.2972
195.0519	0.2182
195.2697	0.2902
195.4875	0.357
195.7054	0.3429
195.9231	0.2736
196.1409	0.4034
196.3587	0.3721
196.5765	0.3518
196.7942	0.4175
197.012	0.4168
197.2297	0.3659
197.4474	0.4366
197.6651	0.3516
197.8828	0.3422
198.1005	0.415
198.3182	0.4281
198.5358	0.3756
198.7535	0.458
198.9711	0.4174
199.1888	0.3721
199.4064	0.3744
199.624	0.4198
199.8416	0.3511
200.0592	0.3905
200.2767	0.3929
200.4943	0.4162
200.7119	0.3986
200.9294	0.464
201.1469	0.4554
201.3645	0.453
201.582	0.4026
201.7995	0.4503
202.017	0.4012
202.2344	0.4054
202.4519	0.4204
202.6694	0.3911
202.8868	0.3884
203.1042	0.4424
203.3217	0.3928
203.5391	0.4121
203.7565	0.3351
203.9739	0.3974
204.1913	0.3688
204.4086	0.3841
204.626	0.3685
204.8433	0.3456
205.0607	0.3758
205.278	0.3679
205.4953	0.3457
205.7126	0.3487
205.9299	0.3088
206.1472	0.35
206.3644	0.3416
206.5817	0.3121
206.7989	0.3352
207.0162	0.3319
207.2334	0.3433
207.4506	0.3152
207.6678	0.3002
207.885	0.3021
208.1022	0.3016
208.3194	0.2965
208.5365	0.3199
208.7537	0.3073
208.9708	0.2951
209.1879	0.3105
209.405	0.2926
209.6222	0.2705
209.8392	0.2854
210.0563	0.2871
210.2734	0.2717
210.4905	0.2845
210.7075	0.2713
210.9245	0.2684
211.1416	0.2881
211.3586	0.2646
211.5756	0.2671
211.7926	0.2648
212.0096	0.261
212.2265	0.2733
212.4435	0.2565
212.6604	0.2544
212.8774	0.2244
213.0943	0.2585
213.3112	0.2573
213.5281	0.2569
213.745	0.2422
213.9619	0.2631
214.1788	0.2658
214.3956	0.243
214.6125	0.2655
214.8293	0.2438
215.0461	0.2574
215.2629	0.2544
215.4798	0.2394
215.6965	0.2473
215.9133	0.2453
216.1301	0.2364
216.3469	0.2425
216.5636	0.2374
216.7803	0.2367
216.9971	0.2494
217.2138	0.2551
217.4305	0.2442
217.6472	0.2516
217.8639	0.2463
218.0805	0.2417
218.2972	0.2403
218.5138	0.261
218.7305	0.2537
218.9471	0.2494
219.1637	0.2538
219.3803	0.2549
219.5969	0.2447
219.8135	0.2654
220.0301	0.251
220.2466	0.2508
220.4632	0.259
220.6797	0.2737
220.8962	0.2524
221.1127	0.2711
221.3292	0.2588
221.5457	0.2808
221.7622	0.2688
221.9787	0.2863
222.1951	0.2573
222.4116	0.2756
222.628	0.2776
222.8444	0.2783
223.0608	0.279
223.2772	0.2815
223.4936	0.261
223.71	0.2869
223.9264	0.28
224.1427	0.2912
224.3591	0.285
224.5754	0.2986
224.7917	0.2854
225.008	0.3095
225.2243	0.3076
225.4406	0.285
225.6569	0.3152
225.8732	0.3102
226.0894	0.3004
226.3057	0.3159
226.5219	0.3144
226.7381	0.3209
226.9543	0.3086
227.1705	0.32
227.3867	0.3264
227.6029	0.3297
227.8191	0.3409
228.0352	0.3449
228.2513	0.3447
228.4675	0.3513
228.6836	0.3484
228.8997	0.3478
229.1158	0.3541
229.3319	0.3579
229.548	0.3608
229.764	0.3547
229.9801	0.3742
230.1961	0.366
230.4121	0.3632
230.6282	0.3746
230.8442	0.3855
231.0602	0.3881
231.2761	0.3798
231.4921	0.3923
231.7081	0.3929
231.924	0.3962
232.14	0.4051
232.3559	0.4054
232.5718	0.4052
232.7877	0.4031
233.0036	0.4175
233.2195	0.4117
233.4353	0.4178
233.6512	0.4144
233.867	0.4172
234.0829	0.4269
234.2987	0.4318
234.5145	0.4288
234.7303	0.4335
234.9461	0.4375
235.1619	0.445
235.3776	0.4383
235.5934	0.4316
235.8091	0.4385
236.0249	0.4503
236.2406	0.4377
236.4563	0.4583
236.672	0.4443
236.8877	0.4477
237.1034	0.4544
237.319	0.4435
237.5347	0.4465
237.7503	0.4447
237.966	0.4657
238.1816	0.4555
238.3972	0.4592
238.6128	0.4799
238.8284	0.4665
239.0439	0.4646
239.2595	0.4579
239.475	0.4592
239.6906	0.4536
239.9061	0.4686
240.1216	0.453
240.3371	0.456
240.5526	0.4577
240.7681	0.4608
240.9836	0.4612
241.199	0.4641
241.4145	0.4495
241.6299	0.4423
241.8453	0.444
242.0607	0.4457
242.2761	0.4389
242.4915	0.4239
242.7069	0.4227
242.9223	0.426
243.1376	0.4133
243.353	0.4056
243.5683	0.4019
243.7836	0.4001
243.9989	0.3871
244.2142	0.3841
244.4295	0.3791
244.6448	0.365
244.86	0.3571
245.0753	0.3497
245.2905	0.345
245.5057	0.3419
245.721	0.3384
245.9362	0.3371
246.1514	0.3213
246.3665	0.3156
246.5817	0.3141
246.7969	0.3038
247.012	0.3008
247.2271	0.2989
247.4423	0.2928
247.6574	0.2896
247.8725	0.2773
248.0876	0.2648
248.3026	0.278
248.5177	0.2626
248.7328	0.2569
248.9478	0.2562
249.1628	0.2528
249.3779	0.2432
249.5929	0.2456
249.8079	0.2412
250.0228	0.2371
250.2378	0.2316
250.4528	0.2315
250.6677	0.2303
250.8827	0.2221
251.0976	0.2178
251.3125	0.2205
251.5274	0.2077
251.7423	0.2094
251.9572	0.2059
252.172	0.2042
252.3869	0.2089
252.6017	0.2054
252.8166	0.1951
253.0314	0.2028
253.2462	0.2002
253.461	0.1989
253.6758	0.1938
253.8906	0.1906
254.1053	0.1915
254.3201	0.1911
254.5348	0.1823
254.7496	0.1866
254.9643	0.1927
255.179	0.1844
255.3937	0.1852
255.6083	0.1924
255.823	0.1788
256.0377	0.1847
256.2523	0.1824
256.467	0.1848
256.6816	0.179
256.8962	0.1885
257.1108	0.1808
257.3254	0.1781
257.54	0.1794
257.7545	0.1904
257.9691	0.1834
258.1836	0.1761
258.3981	0.1789
258.6127	0.1771
258.8272	0.1868
259.0417	0.1729
259.2561	0.1809
259.4706	0.1783
259.6851	0.1737
259.8995	0.1738
260.114	0.1776
260.3284	0.1695
260.5428	0.1783
260.7572	0.1762
260.9716	0.186
261.186	0.175
261.4003	0.1791
261.6147	0.1787
261.829	0.1779
262.0433	0.1775
262.2577	0.1772
262.472	0.1812
262.6863	0.1812
262.9005	0.1783
263.1148	0.1784
263.3291	0.1793
263.5433	0.1808
263.7576	0.1865
263.9718	0.1761
264.186	0.1845
264.4002	0.1827
264.6144	0.1857
264.8286	0.1857
265.0427	0.1891
265.2569	0.1905
265.471	0.1826
265.6851	0.1941
265.8993	0.1843
266.1134	0.1872
266.3275	0.189
266.5415	0.1836
266.7556	0.1936
266.9697	0.1882
267.1837	0.19
267.3978	0.1865
267.6118	0.1822
267.8258	0.1876
268.0398	0.189
268.2538	0.1947
268.4677	0.18
268.6817	0.1886
268.8957	0.1781
269.1096	0.1736
269.3235	0.1836
269.5374	0.186
269.7514	0.1827
269.9652	0.182
270.1791	0.1741
270.393	0.1823
270.6068	0.1824
270.8207	0.1795
271.0345	0.1784
271.2483	0.175
271.4622	0.1779
271.676	0.1764
271.8897	0.177
272.1035	0.1865
272.3173	0.1778
272.531	0.1838
272.7448	0.1761
272.9585	0.1744
273.1722	0.1843
273.3859	0.1799
273.5996	0.1834
273.8133	0.1827
274.0269	0.1774
274.2406	0.1845
274.4542	0.1787
274.6679	0.1897
274.8815	0.1887
275.0951	0.1875
275.3087	0.1873
275.5223	0.1857
275.7358	0.1895
275.9494	0.188
276.1629	0.1916
276.3765	0.1859
276.59	0.1844
276.8035	0.1833
277.017	0.191
277.2305	0.1911
277.444	0.1895
277.6574	0.1896
277.8709	0.1995
278.0843	0.1936
278.2978	0.1925
278.5112	0.1921
278.7246	0.1905
278.938	0.1959
279.1513	0.1971
279.3647	0.1964
279.5781	0.1918
279.7914	0.1939
280.0047	0.1898
280.2181	0.185
280.4314	0.1913
280.6447	0.1955
280.8579	0.1827
281.0712	0.1882
281.2845	0.1883
281.4977	0.188
281.711	0.181
281.9242	0.1855
282.1374	0.1834
282.3506	0.1864
282.5638	0.1841
282.7769	0.1868
282.9901	0.1888
283.2033	0.1858
283.4164	0.1839
283.6295	0.1905
283.8426	0.1855
284.0557	0.183
284.2688	0.1818
284.4819	0.1821
284.695	0.1881
284.908	0.1826
285.1211	0.1876
285.3341	0.1796
285.5471	0.1901
285.7601	0.1859
285.9731	0.1906
286.1861	0.1882
286.3991	0.1915
286.612	0.1833
286.825	0.1832
287.0379	0.1875
287.2508	0.1853
287.4637	0.1878
287.6766	0.1872
287.8895	0.1887
288.1024	0.1898
288.3152	0.188
288.5281	0.1806
288.7409	0.1878
288.9538	0.1911
289.1666	0.189
289.3794	0.1838
289.5922	0.1843
289.8049	0.1913
290.0177	0.1843
290.2304	0.1861
290.4432	0.1888
290.6559	0.1871
290.8686	0.1834
291.0813	0.1835
291.294	0.1908
291.5067	0.1858
291.7194	0.1859
291.932	0.1831
292.1447	0.1887
292.3573	0.1887
292.5699	0.1867
292.7825	0.187
292.9951	0.1886
293.2077	0.1812
293.4203	0.1929
293.6328	0.1883
293.8454	0.1917
294.0579	0.184
294.2704	0.1894
294.4829	0.1911
294.6954	0.186
294.9079	0.185
295.1204	0.182
295.3328	0.1901
295.5453	0.1904
295.7577	0.1855
295.9701	0.1907
296.1825	0.1874
296.3949	0.1847
296.6073	0.1865
296.8197	0.1856
297.0321	0.1882
297.2444	0.1862
297.4567	0.1904
297.6691	0.1837
297.8814	0.1862
298.0937	0.1837
298.306	0.1813
298.5182	0.1882
298.7305	0.189
298.9428	0.1858
299.155	0.1791
299.3672	0.1861
299.5794	0.1851
299.7916	0.1863
300.0038	0.1862
300.216	0.1886
300.4282	0.1866
300.6403	0.1955
300.8525	0.189
301.0646	0.1902
301.2767	0.1871
301.4888	0.1869
301.7009	0.1886
301.913	0.1866
302.125	0.1889
302.3371	0.1867
302.5491	0.186
302.7612	0.1943
302.9732	0.1968
303.1852	0.1889
303.3972	0.1883
303.6092	0.1917
303.8211	0.1842
304.0331	0.1911
304.245	0.1887
304.457	0.1836
304.6689	0.1862
304.8808	0.186
305.0927	0.185
305.3046	0.1833
305.5164	0.1836
305.7283	0.1836
305.9401	0.1704
306.152	0.1738
306.3638	0.1783
306.5756	0.1786
306.7874	0.172
306.9992	0.1728
307.2109	0.1716
307.4227	0.1676
307.6344	0.1694
307.8462	0.1691
308.0579	0.1694
308.2696	0.1684
308.4813	0.1646
308.693	0.164
308.9046	0.1604
309.1163	0.1616
309.328	0.1614
309.5396	0.1536
309.7512	0.1571
309.9628	0.1553
310.1744	0.152
310.386	0.1525
310.5976	0.1484
310.8091	0.1537
311.0207	0.1461
311.2322	0.1504
311.4437	0.1468
311.6552	0.1482
311.8667	0.1487
312.0782	0.1428
312.2897	0.1476
312.5012	0.1424
312.7126	0.1393
312.924	0.1452
313.1355	0.1413
313.3469	0.1345
313.5583	0.1369
313.7696	0.1353
313.981	0.1423
314.1924	0.1304
314.4037	0.1384
314.6151	0.1347
314.8264	0.143
315.0377	0.142
315.249	0.1371
315.4603	0.1282
315.6716	0.137
315.8828	0.1324
316.0941	0.1359
316.3053	0.1292
316.5165	0.1306
316.7277	0.129
316.9389	0.137
317.1501	0.1269
317.3613	0.1313
317.5724	0.1313
317.7836	0.1314
317.9947	0.1266
318.2058	0.1266
318.417	0.1336
318.6281	0.1299
318.8391	0.1275
319.0502	0.1326
319.2613	0.1299
319.4723	0.1254
319.6834	0.1313
319.8944	0.1304
320.1054	0.1293
320.3164	0.1291
320.5274	0.132
320.7383	0.1355
320.9493	0.1282
321.1602	0.1273
321.3712	0.1288
321.5821	0.1211
321.793	0.1401
322.0039	0.1318
322.2148	0.1315
322.4257	0.1284
322.6365	0.1271
322.8474	0.1302
323.0582	0.1331
323.269	0.1374
323.4798	0.1304
323.6906	0.1233
323.9014	0.1297
324.1122	0.1227
324.3229	0.1307
324.5337	0.1364
324.7444	0.1307
324.9551	0.1326
325.1658	0.1337
325.3765	0.1357
325.5872	0.141
325.7979	0.1368
326.0085	0.1324
326.2192	0.134
326.4298	0.1376
326.6404	0.1414
326.851	0.1365
327.0616	0.1345
327.2722	0.1388
327.4828	0.1366
327.6933	0.1462
327.9039	0.1359
328.1144	0.1373
328.3249	0.142
328.5354	0.1431
328.7459	0.1348
328.9564	0.141
329.1669	0.1415
329.3773	0.1412
329.5878	0.1344
329.7982	0.1441
330.0086	0.1424
330.219	0.1398
330.4294	0.1462
330.6398	0.1489
330.8502	0.1519
331.0605	0.1476
331.2708	0.1438
331.4812	0.1416
331.6915	0.1417
331.9018	0.1431
332.1121	0.1506
332.3224	0.1408
332.5326	0.144
332.7429	0.142
332.9531	0.1535
333.1633	0.1337
333.3735	0.1416
333.5837	0.1507
333.7939	0.143
334.0041	0.1499
334.2143	0.1426
334.4244	0.1513
334.6346	0.1421
334.8447	0.1446
335.0548	0.1475
335.2649	0.1473
335.475	0.1468
335.685	0.1454
335.8951	0.1427
336.1051	0.1454
336.3152	0.1499
336.5252	0.1464
336.7352	0.1451
336.9452	0.1509
337.1552	0.147
337.3652	0.1419
337.5751	0.1424
337.7851	0.1457
337.995	0.1472
338.2049	0.1421
338.4148	0.1447
338.6247	0.1469
338.8346	0.1447
339.0445	0.148
339.2543	0.1459
339.4642	0.1448
339.674	0.1447
339.8838	0.148
340.0936	0.1461
340.3034	0.1464
340.5132	0.1428
340.7229	0.1453
340.9327	0.1537
341.1424	0.148
341.3522	0.1426
341.5619	0.1482
341.7716	0.1572
341.9813	0.1568
342.1909	0.1547
342.4006	0.1559
342.6102	0.1545
342.8199	0.1548
343.0295	0.1483
343.2391	0.1506
343.4487	0.1588
343.6583	0.1691
343.8679	0.1596
344.0774	0.1539
344.287	0.1583
344.4965	0.1614
344.706	0.1611
344.9155	0.1553
345.125	0.1588
345.3345	0.1693
345.544	0.1679
345.7534	0.1726
345.9629	0.173
346.1723	0.1674
346.3817	0.1677
346.5911	0.1708
346.8005	0.1697
347.0099	0.1755
347.2193	0.1733
347.4286	0.1765
347.638	0.1731
347.8473	0.1785
348.0566	0.1748
348.2659	0.1731
348.4752	0.174
348.6845	0.1754
348.8937	0.1764
349.103	0.1724
349.3122	0.1772
349.5214	0.1739
349.7306	0.1872
349.9398	0.1751
350.149	0.1735
350.3582	0.1839
350.5674	0.182
350.7765	0.1877
350.9856	0.1762
351.1948	0.1805
351.4039	0.184
351.613	0.182
351.822	0.182
352.0311	0.1862
352.2402	0.1832
352.4492	0.1763
352.6582	0.1875
352.8672	0.1867
353.0762	0.1879
353.2852	0.1846
353.4942	0.1835
353.7032	0.178
353.9121	0.1795
354.1211	0.1949
354.33	0.1865
354.5389	0.1808
354.7478	0.1804
354.9567	0.1845
355.1655	0.1832
355.3744	0.1861
355.5833	0.183
355.7921	0.1914
356.0009	0.1839
356.2097	0.181
356.4185	0.1869
356.6273	0.1869
356.8361	0.1863
357.0448	0.1857
357.2536	0.1881
357.4623	0.1883
357.671	0.186
357.8797	0.1882
358.0884	0.1808
358.2971	0.1904
358.5057	0.199
358.7144	0.1904
358.923	0.2008
359.1316	0.1936
359.3402	0.1926
359.5488	0.1924
359.7574	0.2005
359.966	0.1969
360.1746	0.1918
360.3831	0.1978
360.5916	0.2057
360.8002	0.2029
361.0087	0.2
361.2172	0.1945
361.4256	0.2014
361.6341	0.206
361.8426	0.2022
362.051	0.2079
362.2594	0.197
362.4678	0.2144
362.6762	0.2105
362.8846	0.2145
363.093	0.2051
363.3014	0.2174
363.5097	0.2059
363.718	0.2071
363.9264	0.2152
364.1347	0.2093
364.343	0.2063
364.5513	0.2132
364.7595	0.2212
364.9678	0.2102
365.176	0.2173
365.3842	0.2225
365.5925	0.2192
365.8007	0.2239
366.0089	0.2335
366.217	0.2182
366.4252	0.2185
366.6333	0.2201
366.8415	0.2264
367.0496	0.2279
367.2577	0.2287
367.4658	0.2227
367.6739	0.2248
367.882	0.2341
368.09	0.2135
368.2981	0.2306
368.5061	0.2321
368.7141	0.2249
368.9221	0.2346
369.1301	0.2315
369.3381	0.2389
369.5461	0.238
369.754	0.2392
369.962	0.237
370.1699	0.2349
370.3778	0.2482
370.5857	0.2428
370.7936	0.2314
371.0015	0.236
371.2093	0.2314
371.4172	0.238
371.625	0.2408
371.8328	0.2313
372.0406	0.2452
372.2484	0.2468
372.4562	0.2469
372.664	0.2434
372.8717	0.2447
373.0795	0.2606
373.2872	0.2531
373.4949	0.2553
373.7026	0.2397
373.9103	0.2419
374.118	0.2512
374.3256	0.2502
374.5333	0.2489
374.7409	0.2581
374.9485	0.2452
375.1561	0.254
375.3637	0.2469
375.5713	0.2519
375.7789	0.2507
375.9864	0.2575
376.194	0.2593
376.4015	0.2548
376.609	0.2513
376.8165	0.2572
377.024	0.2619
377.2315	0.2631
377.4389	0.2469
377.6464	0.266
377.8538	0.2592
378.0612	0.2706
378.2686	0.2573
378.476	0.2657
378.6834	0.2616
378.8908	0.277
379.0981	0.2669
379.3055	0.2664
379.5128	0.2629
379.7201	0.2632
379.9274	0.2608
380.1347	0.2678
380.342	0.285
380.5492	0.2779
380.7565	0.2605
380.9637	0.2751
381.1709	0.2694
381.3781	0.2734
381.5853	0.2643
381.7925	0.2641
381.9997	0.2743
382.2068	0.2714
382.4139	0.2779
382.6211	0.2668
382.8282	0.2789
383.0353	0.2792
383.2424	0.2796
383.4494	0.2742
383.6565	0.2862
383.8635	0.2735
384.0706	0.2864
384.2776	0.2762
384.4846	0.2889
384.6916	0.2716
384.8986	0.2894
385.1055	0.2868
385.3125	0.2805
385.5194	0.2843
385.7263	0.2843
385.9333	0.2736
386.1402	0.2902
386.347	0.2889
386.5539	0.2842
386.7608	0.2723
386.9676	0.2768
387.1744	0.2803
387.3813	0.2864
387.5881	0.2762
387.7948	0.2875
388.0016	0.2923
388.2084	0.2829
388.4151	0.2871
388.6219	0.2711
388.8286	0.279
389.0353	0.2837
389.242	0.2894
389.4487	0.2774
389.6553	0.2577
389.862	0.277
390.0686	0.2826
390.2753	0.2759
390.4819	0.281
390.6885	0.2721
390.8951	0.2734
391.1016	0.2724
391.3082	0.2761
391.5147	0.2657
391.7213	0.2655
391.9278	0.2574
392.1343	0.2675
392.3408	0.2658
392.5473	0.2644
392.7537	0.2528
392.9602	0.2627
393.1666	0.2634
393.373	0.2601
393.5794	0.2649
393.7858	0.2607
393.9922	0.261
394.1986	0.2538
394.4049	0.2562
394.6113	0.2571
394.8176	0.257
395.0239	0.2506
395.2302	0.2483
395.4365	0.2567
395.6428	0.2501
395.8491	0.2525
396.0553	0.2413
396.2615	0.2425
396.4678	0.2527
396.674	0.2489
396.8802	0.2398
397.0863	0.2375
397.2925	0.2382
397.4987	0.2424
397.7048	0.2399
397.9109	0.2455
398.117	0.2353
398.3231	0.2364
398.5292	0.2358
398.7353	0.239
398.9413	0.2273
399.1474	0.2366
399.3534	0.2366
399.5594	0.2395
399.7654	0.2371
399.9714	0.2407
400.1774	0.2324
400.3833	0.2412
400.5893	0.2442
400.7952	0.2485
401.0011	0.2376
401.207	0.2453
401.4129	0.24
401.6188	0.2308
401.8247	0.2432
402.0305	0.237
402.2364	0.238
402.4422	0.2431
402.648	0.2336
402.8538	0.2261
403.0596	0.2285
403.2654	0.2326
403.4711	0.2338
403.6768	0.2226
403.8826	0.2344
404.0883	0.2319
404.294	0.2371
404.4997	0.2314
404.7054	0.2464
404.911	0.2334
405.1167	0.2415
405.3223	0.2316
405.5279	0.2361
405.7335	0.2398
405.9391	0.2309
406.1447	0.2351
406.3502	0.2322
406.5558	0.2402
406.7613	0.2405
406.9668	0.2333
407.1724	0.232
407.3778	0.2351
407.5833	0.2204
407.7888	0.234
407.9942	0.239
408.1997	0.2345
408.4051	0.2329
408.6105	0.2349
408.8159	0.2388
409.0213	0.2348
409.2267	0.241
409.432	0.2305
409.6374	0.2285
409.8427	0.2419
410.048	0.2397
410.2533	0.2403
410.4586	0.2341
410.6639	0.2429
410.8691	0.2259
411.0744	0.2449
411.2796	0.2261
411.4848	0.2302
411.69	0.2283
411.8952	0.2327
412.1004	0.2394
412.3056	0.2318
412.5107	0.2443
412.7158	0.2426
412.921	0.2316
413.1261	0.2267
413.3312	0.2344
413.5362	0.2378
413.7413	0.2294
413.9464	0.2285
414.1514	0.2347
414.3564	0.2181
414.5614	0.2279
414.7664	0.2316
414.9714	0.2206
415.1764	0.2326
415.3813	0.2302
415.5863	0.2388
415.7912	0.2432
415.9961	0.2254
416.201	0.2398
416.4059	0.2192
416.6108	0.2277
416.8156	0.2304
417.0205	0.2246
417.2253	0.2188
417.4301	0.2384
417.6349	0.2218
417.8397	0.2197
418.0445	0.2166
418.2492	0.225
418.454	0.2185
418.6587	0.2311
418.8634	0.2278
419.0681	0.2238
419.2728	0.2269
419.4775	0.2334
419.6822	0.2144
419.8868	0.2205
420.0915	0.2237
420.2961	0.2156
420.5007	0.2121
420.7053	0.216
420.9099	0.2239
421.1144	0.2179
421.319	0.2141
421.5235	0.2131
421.728	0.2218
421.9325	0.2152
422.137	0.2039
422.3415	0.1983
422.546	0.2133
422.7504	0.2107
422.9549	0.2105
423.1593	0.2063
423.3637	0.2048
423.5681	0.2207
423.7725	0.2074
423.9769	0.2143
424.1812	0.1972
424.3856	0.2014
424.5899	0.1963
424.7942	0.2135
424.9985	0.2066
425.2028	0.2044
425.4071	0.201
425.6113	0.2097
425.8156	0.1985
426.0198	0.1942
426.224	0.2015
426.4282	0.1838
426.6324	0.199
426.8366	0.2029
427.0407	0.1945
427.2449	0.1923
427.449	0.1935
427.6531	0.2015
427.8572	0.1964
428.0613	0.2014
428.2654	0.1821
428.4694	0.1781
428.6735	0.1801
428.8775	0.1835
429.0815	0.1793
429.2855	0.1845
429.4895	0.1848
429.6935	0.173
429.8975	0.1712
430.1014	0.1797
430.3053	0.1807
430.5093	0.1658
430.7132	0.18
430.9171	0.1615
431.1209	0.1691
431.3248	0.1582
431.5286	0.1609
431.7325	0.1697
431.9363	0.163
432.1401	0.1664
432.3439	0.152
432.5477	0.1572
432.7514	0.1564
432.9552	0.1565
433.1589	0.1574
433.3627	0.163
433.5664	0.1476
433.7701	0.1477
433.9737	0.1522
434.1774	0.1474
434.3811	0.1436
434.5847	0.1448
434.7883	0.1417
434.9919	0.1401
435.1955	0.1382
435.3991	0.1446
435.6027	0.1268
435.8062	0.155
436.0098	0.1229
436.2133	0.1324
436.4168	0.1278
436.6203	0.1287
436.8238	0.1268
437.0272	0.1258
437.2307	0.1256
437.4341	0.1261
437.6375	0.1234
437.841	0.1091
438.0443	0.1155
438.2477	0.1095
438.4511	0.1057
438.6545	0.1181
438.8578	0.1149
439.0611	0.1155
439.2644	0.1119
439.4677	0.1022
439.671	0.1042
439.8743	0.1091
440.0775	0.1088
440.2808	0.0921
440.484	0.093
440.6872	0.0995
440.8904	0.0977
441.0936	0.0951
441.2967	0.0874
441.4999	0.0896
441.703	0.0887
441.9062	0.0881
442.1093	0.0923
442.3124	0.086
442.5155	0.087
442.7185	0.0805
442.9216	0.0887
443.1246	0.0845
443.3276	0.084
443.5307	0.0822
443.7337	0.0927
443.9366	0.0751
444.1396	0.0715
444.3426	0.0738
444.5455	0.0777
444.7484	0.0696
444.9513	0.0633
445.1542	0.0712
445.3571	0.0757
445.56	0.06
445.7628	0.067
445.9657	0.0641
446.1685	0.0645
446.3713	0.0683
446.5741	0.0691
446.7769	0.0704
446.9797	0.064
447.1824	0.0587
447.3852	0.0478
447.5879	0.0552
447.7906	0.0528
447.9933	0.0574
448.196	0.0571
448.3986	0.0495
448.6013	0.0415
448.8039	0.0594
449.0066	0.063
449.2092	0.0542
449.4118	0.0504
449.6143	0.0517
449.8169	0.0497
450.0195	0.051
450.222	0.0537
450.4245	0.0505
450.627	0.0455
450.8295	0.0454
451.032	0.0417
451.2345	0.0289
451.4369	0.0382
451.6394	0.0318
451.8418	0.0436
452.0442	0.04
452.2466	0.032
452.449	0.0384
452.6513	0.0402
452.8537	0.0333
453.056	0.0225
453.2583	0.027
453.4607	0.0266
453.663	0.0368
453.8652	0.02
454.0675	0.0397
454.2697	0.0277
454.472	0.0197
454.6742	0.0415
454.8764	0.031
455.0786	0.0302
455.2808	0.0313
455.4829	0.0354
455.6851	0.0277
455.8872	0.0186
456.0893	0.0228
456.2915	0.0251
456.4935	0.0304
456.6956	0.0257
456.8977	0.018
457.0997	0.0335
457.3018	0.016
457.5038	0.0252
457.7058	0.0286
457.9078	0.0249
458.1098	0.0153
458.3117	0.0313
458.5137	0.0119
458.7156	0.0239
458.9175	0.0235
459.1194	0.0172
459.3213	0.0148
459.5232	0.0252
459.725	0.0156
459.9269	0.0265
460.1287	0.0157
460.3305	0.0172
460.5323	0.0185
460.7341	0.0257
460.9359	0.0135
461.1376	0.0148
461.3394	0.0244
461.5411	0.0229
461.7428	0.0194
461.9445	0.0095
462.1462	0.0127
462.3479	0.014
462.5495	0.0275
462.7512	0.025
462.9528	0.0123
463.1544	0.0066
463.356	0.0109
463.5576	0.0209
463.7592	0.0143
463.9607	0.0162
464.1623	0.0077
464.3638	0.0088
464.5653	0.0157
464.7668	0.0181
464.9683	0.0067
465.1697	0.0082
465.3712	0.0045
465.5726	0.0141
465.7741	0.0218
465.9755	0.0159
466.1769	0.0153
466.3782	0.0022
466.5796	0.0208
466.7809	0.008
466.9823	0.0118
467.1836	0.0086
467.3849	0.0151
467.5862	0.0011
467.7875	0.0039
467.9887	0.0223
468.19	0.0018
468.3912	0.0156
468.5924	0.0124
468.7936	0.0099
468.9948	0.0088
469.196	0.0047
469.3972	0.0037
469.5983	0.0078
469.7994	0.0077
470.0006	0.0108
470.2017	0.0111
470.4027	0.0184
470.6038	-0.0003
470.8049	0.0119
471.0059	0.0128
471.2069	0.0125
471.408	0.0134
471.6089	0.0117
471.8099	0.007
472.0109	0.0222
472.2119	0.015
472.4128	0.0057
472.6137	0.0122
472.8146	0.0107
473.0155	0.0192
473.2164	0.0086
473.4173	0.0066
473.6181	0.0073
473.819	0.0058
474.0198	0.0021
474.2206	0.0005
474.4214	0.0119
474.6222	-0.0017
474.8229	0.0099
475.0237	0.0097
475.2244	0.0098
475.4251	0.0096
475.6258	0.007
475.8265	0.0121
476.0272	-0.0012
476.2278	0.0086
476.4285	0.0081
476.6291	0.0101
476.8297	0.0204
477.0303	0.002
477.2309	0.0056
477.4315	0.0077
477.632	-0.0014
477.8326	0.0122
478.0331	0.0148
478.2336	0.0107
478.4341	0.0105
478.6346	0.0032
478.8351	-0.0031
479.0355	0.0142
479.236	0.0202
479.4364	0.0101
479.6368	0.0078
479.8372	0.003
480.0376	0.0077
480.2379	0.011
480.4383	0.0104
480.6386	0.005
480.8389	-0.0047
481.0392	0.0055
481.2395	0.0131
481.4398	0.0014
481.6401	0.0064
481.8403	-0.0017
482.0405	0.0099
482.2408	0.0096
482.441	0.005
482.6411	0.0118
482.8413	0.0034
483.0415	0.0137
483.2416	0.0058
483.4417	0.0042
483.6419	0.0056
483.8419	0.0075
484.042	0.0051
484.2421	0.0036
484.4422	0.0062
484.6422	0.0068
484.8422	0.0066
485.0422	0.0073
485.2422	0.0063
485.4422	0.0034
485.6422	0.0051
485.8421	0.0045
486.042	0.0134
486.242	-0.0007
486.4419	0.0079
486.6417	-0.0024
486.8416	0.0064
487.0415	0.004
487.2413	-0.0007
487.4411	0.0003
487.641	0.0023
487.8408	0.0081
488.0405	0.0098
488.2403	0.0036
488.4401	0.0049
488.6398	0.0094
488.8395	-0.0002
489.0392	0.0104
489.2389	0.0086
489.4386	-0.0029
489.6383	0.0091
489.8379	-0.0038
490.0376	0.0035
490.2372	-0.001
490.4368	0.0071
490.6364	-0.0043
490.836	0.0006
491.0355	0.0008
491.2351	0.0079
491.4346	0.0076
491.6341	0.0044
491.8336	0.0118
492.0331	0.0003
492.2326	0.0055
492.432	0.0037
492.6315	0.0089
492.8309	0.0152
493.0303	0.0083
493.2297	0.0041
493.4291	0.0049
493.6284	0.0104
493.8278	0.0039
494.0271	0.0051
494.2264	0.0053
494.4257	0.0086
494.625	0.0083
494.8243	-0.0061
495.0236	0.0066
495.2228	0.0126
495.422	0.0037
495.6213	0.0104
495.8205	0.0059
496.0196	0.0006
496.2188	0.0049
496.418	0.0043
496.6171	-0.0056
496.8162	0.0087
497.0153	0.0108
497.2144	0.0041
497.4135	0.007
497.6126	0.0096
497.8116	0.0015
498.0107	0.002
498.2097	0.0084
498.4087	-0.0009
498.6077	-0.0078
498.8067	0.0051
499.0056	0.0053
499.2046	0.0079
499.4035	0.005
499.6024	-0.0028
499.8013	0.0075
500.0002	0.0125
500.199	0.0119
500.3979	0.0054
500.5967	0.0028
500.7956	0.0095
500.9944	0.0019
501.1932	0.0163
501.3919	0.012
501.5907	0.0151
501.7895	0.0044
501.9882	0.008
502.1869	0.0145
502.3856	0.0099
502.5843	0.0057
502.783	-0.0033
502.9816	0.0148
503.1803	0.0008
503.3789	0.0128
503.5775	0.0043
503.7761	0.0003
503.9747	0.0055
504.1732	0.0019
504.3718	0.0132
504.5703	0.001
504.7689	-0.0014
504.9674	0.0121
505.1658	0.0032
505.3643	0.0113
505.5628	0.0128
505.7612	0.0066
505.9597	0.0013
506.1581	0.0067
506.3565	0.0044
506.5549	0.0057
506.7532	0.0028
506.9516	0.0046
507.1499	0.0075
507.3482	0.0125
507.5465	0.0069
507.7448	0.0004
507.9431	0.0151
508.1414	0.006
508.3396	0.007
508.5379	-0.0003
508.7361	0.0149
508.9343	0.0117
509.1325	0.0164
509.3306	0.0011
509.5288	0.0003
509.7269	0.0063
509.9251	0.01
510.1232	0.0006
510.3213	0.0085
510.5193	0.0011
510.7174	0.0008
510.9154	0.0214
511.1135	0.0027
511.3115	0.0086
511.5095	0.0059
511.7075	0.0079
511.9055	-0.0004
512.1034	0.0049
512.3014	0.0137
512.4993	0.0104
512.6972	0.0023
512.8951	0.0068
513.093	0.0077
513.2908	0.0175
513.4887	0.0047
513.6865	0.0059
513.8844	0.0033
514.0822	0.0187
514.2799	0.0007
514.4777	0.0026
514.6755	0.0042
514.8732	0.0078
515.0709	0.0031
515.2687	0.0039
515.4664	0.016
515.664	0.0173
515.8617	0.0121
516.0594	0.0153
516.257	0.0052
516.4546	0.0191
516.6522	0.0129
516.8498	0.0073
517.0474	0.0102
517.2449	0.0039
517.4425	0.0016
517.64	0.013
517.8375	0.0134
518.035	0.0056
518.2325	0.011
518.43	0.0034
518.6274	0.0067
518.8249	0.0021
519.0223	0.0165
519.2197	0.011
519.4171	0.0029
519.6145	0.0104
519.8118	-0.0018
520.0092	-0.0005
520.2065	0.0141
520.4038	0.0117
520.6011	0.0176
520.7984	0.0068
520.9956	0.014
521.1929	0.0176
521.3901	0.0066
521.5874	0.0187
521.7846	-0.0058
521.9818	0.0048
522.1789	-0.0005
522.3761	0.02
522.5732	0.0119
522.7704	-0.0059
522.9675	0.0112
523.1646	-0.0022
523.3617	0.0069
523.5587	0.0067
523.7558	0.0005
523.9528	0.0087
524.1498	-0.0009
524.3468	0.0001
524.5438	0.0133
524.7408	0.0069
524.9378	0.0125
525.1347	0.0173
525.3316	0.0089
525.5285	0.0064
525.7254	0.0092
525.9223	0.022
526.1192	0.0155
526.316	0.0214
526.5129	0.0183
526.7097	-0.001
526.9065	0.0066
527.1033	0.0181
527.3	-0.002
527.4968	0.0133
527.6935	-0.0053
527.8903	0.0039
528.087	0.0018
528.2837	0.0123
528.4804	-0.0061
528.677	0.0118
528.8737	0.0089
529.0703	0.0034
529.2669	0.0078
529.4635	-0.0012
529.6601	-0.0067
529.8567	-0.0048
530.0532	0.0055
530.2498	0.0017
530.4463	0.0036
530.6428	0.0038
530.8393	0.0132
531.0358	0.0039
531.2322	-0.0028
531.4287	0.0013
531.6251	-0.0019
531.8215	0.0063
532.0179	0.0052
532.2143	0.0023
532.4107	0.0041
532.607	-0.0004
532.8034	0.005
532.9997	0.0032
533.196	0.0092
533.3923	0.0118
533.5886	0.0039
533.7848	0.0073
533.9811	0.0081
534.1773	0.0086
534.3735	0.0074
534.5697	0.0069
534.7659	0.008
534.9621	0.0062
535.1582	0.0086
535.3544	0.0121
535.5505	0.0175
535.7466	0.0078
535.9427	0.0139
536.1387	-0.0064
536.3348	0.0098
536.5308	0.0069
536.7269	-0.0007
536.9229	0.002
537.1189	0.0085
537.3148	-0.0006
537.5108	0.0075
537.7068	0.0175
537.9027	-0.0043
538.0986	0.0106
538.2945	-0.0006
538.4904	-0.0004
538.6863	0.0075
538.8821	0.0072
539.078	0.0083
539.2738	0.006
539.4696	0.0011
539.6654	0.0093
539.8611	0.001
540.0569	0.0012
540.2526	0.0183
540.4484	-0
540.6441	0.0031
540.8398	0.004
541.0355	0.0043
541.2311	-0.001
541.4268	0.0037
541.6224	0.0149
541.818	0.0097
542.0136	0.0109
542.2092	0.0048
542.4048	0.0083
542.6003	0.008
542.7959	0.0099
542.9914	0.0061
543.1869	0.004
543.3824	0.0111
543.5779	0.0132
543.7734	0.0146
543.9688	0.0049
544.1642	-0.0013
544.3596	0.0125
544.555	0.0004
544.7504	0.0201
544.9458	0.01
545.1411	0.0043
545.3365	0.0082
545.5318	0.0081
545.7271	0.0138
545.9224	0.0079
546.1177	0.0094
546.3129	0.0059
546.5081	0.003
546.7034	0.0085
546.8986	0.0069
547.0938	0.0092
547.289	0.0193
547.4841	0.0095
547.6793	0.0024
547.8744	0.0075
548.0695	0.0016
548.2646	0.0133
548.4597	-0.0011
548.6548	0.0149
548.8498	0.0072
549.0448	0.0099
549.2399	0.0143
549.4349	0.0041
549.6298	0.0093
549.8248	0.0086
550.0198	0.004
550.2147	0.0123
550.4096	0.0015
550.6045	0.0024
550.7994	0.0032
550.9943	0.0179
551.1892	-0.0045
551.384	0.0125
551.5788	0.0089
551.7737	0.0154
551.9685	0.0039
552.1632	0.0106
552.358	0.0011
552.5528	0.0138
552.7475	0.0052
552.9422	0.0205
553.1369	0.0092
553.3316	0.0083
553.5263	0.0084
553.7209	0.0046
553.9156	0.0056
554.1102	0.0187
554.3048	0.0008
554.4994	-0.0024
554.694	0.0081
554.8885	0.0154
555.0831	0.0104
555.2776	0.0177
555.4721	0.0066
555.6666	0.0053
555.8611	0.0035
556.0555	0.0055
556.25	0.0101
556.4444	-0.0034
556.6388	0.0044
556.8332	0.0079
557.0276	0.0083
557.222	-0.0044
557.4163	0.0114
557.6107	-0.0044
557.805	-0.0032
557.9993	0.0014
558.1936	-0.004
558.3879	0.0077
558.5821	0.0039
558.7764	0.006
558.9706	0.0044
559.1648	0.0017
559.359	-0.0034
559.5532	0.0013
559.7473	-0.0012
559.9415	0.0033
560.1356	0.0149
560.3297	0.0078
560.5238	0.0153
560.7179	0.0048
560.9119	0.0107
561.106	0.0035
561.3	0.0063
561.494	-0.0004
561.688	0.0024
561.882	0.0104
562.076	0.0096
562.2699	0.0178
562.4639	0.0107
562.6578	0.0064
562.8517	0.0044
563.0456	0.0035
563.2395	0.0093
563.4333	0.0029
563.6272	0.009
563.821	0.0047
564.0148	0.005
564.2086	0.0097
564.4024	0.0085
564.5961	0.001
564.7899	0.013
564.9836	0.0103
565.1773	0.0165
565.371	-0.0011
565.5647	0.0112
565.7584	0.0065
565.952	0.004
566.1456	0.0045
566.3393	0.0032
566.5329	0.0023
566.7264	0.0077
566.92	0.0028
567.1136	0.0049
567.3071	0.0048
567.5006	0.007
567.6941	0.0063
567.8876	0.0047
568.0811	0.0209
568.2745	0.0079
568.468	0.0058
568.6614	0.0089
568.8548	0.0076
569.0482	0.0123
569.2416	0.0055
569.4349	0.01
569.6283	0.0009
569.8216	0.0112
570.0149	0.0017
570.2082	0.0129
570.4015	0.004
570.5947	0.007
570.788	0.0031
570.9812	0.0011
571.1744	0.0086
571.3676	0.0034
571.5608	0.0043
571.754	0.0148
571.9471	0.0119
572.1402	0.0024
572.3333	0.0119
572.5264	0.0018
572.7195	0.0019
572.9126	0.0079
573.1057	0.0102
573.2987	0.0045
573.4917	0.0051
573.6847	0.0034
573.8777	0.009
574.0707	0.0069
574.2636	0.0075
574.4566	0.0055
574.6495	0.004
574.8424	0.0055
575.0353	0.0098
575.2281	0.011
575.421	0.0052
575.6138	0.001
575.8067	0.0069
575.9995	0.0041
576.1923	0.0077
576.385	0.0084
576.5778	0.0062
576.7706	0.0064
576.9633	0.0049
577.156	-0.0023
577.3487	0.0036
577.5414	0.0051
577.734	0.0016
577.9267	0.0046
578.1193	0.007
578.3119	0.002
578.5045	0.0084
578.6971	0.004
578.8897	0.0049
579.0822	0.0075
579.2747	0.0033
579.4673	0.0021
579.6598	0.0069
579.8522	0.0027
580.0447	0.0045
580.2372	0.0105
580.4296	0.009
580.622	0.0033
580.8144	0.0066
581.0068	0.0052
581.1992	0.0048
581.3915	0.0002
581.5839	0.0049
581.7762	0.0042
581.9685	0.0035
582.1608	0.0022
582.353	0.004
582.5453	0.0097
582.7375	0.0118
582.9298	0.0007
583.122	0.0021
583.3142	0.0063
583.5063	0.0025
583.6985	0.002
583.8906	0.0026
584.0827	0.0056
584.2749	0.0037
584.4669	0.0044
584.659	0.0039
584.8511	0.0097
585.0431	0.0059
585.2352	0.0044
585.4272	0.0071
585.6192	0.0036
585.8111	0.0023
586.0031	-0.0002
586.195	0.0026
586.387	0.0046
586.5789	0.0069
586.7708	0.0092
586.9627	0.005
587.1545	0.0038
587.3464	0.0079
587.5382	0.0089
587.73	0.0103
587.9218	0.0026
588.1136	0.0058
588.3053	0.0061
588.4971	0.0023
588.6888	0.0031
588.8805	0.0031
589.0722	0.0108
589.2639	0.0076
589.4556	0.0104
589.6472	0.0116
589.8389	0.004
590.0305	0.0006
590.2221	0.0091
590.4137	0.0029
590.6052	0.0041
590.7968	0.0069
590.9883	0.0049
591.1798	0.0069
591.3713	0.0069
591.5628	0.0056
591.7543	0.0071
591.9458	0.0033
592.1372	0.0068
592.3286	0.0022
592.52	0.005
592.7114	-0.0001
592.9028	0.008
593.0941	0.0048
593.2855	0.0062
593.4768	0.0091
593.6681	0.0064
593.8594	0.0078
594.0506	0.009
594.2419	0.0087
594.4331	0.0118
594.6244	-0.0007
594.8156	0.0023
595.0067	0.0008
595.1979	0.0083
595.3891	0.0075
595.5802	0.0096
595.7713	0.0065
595.9624	0.0124
596.1535	0.006
596.3446	-0.0001
596.5357	0.007
596.7267	0.0045
596.9177	0.007
597.1087	-0.0004
597.2997	0.0159
597.4907	-0.0052
597.6817	0.0092
597.8726	0.0103
598.0635	-0.0002
598.2544	0.0021
598.4453	0.0045
598.6362	0.0023
598.827	-0.002
599.0179	0.0049
599.2087	0.0089
599.3995	0.0054
599.5903	0.0087
599.7811	0.0092
599.9718	0.0038
600.1626	0.0037
600.3533	0.0018
600.544	0.0064
600.7347	0.0086
600.9254	0.0072
601.116	0.0092
601.3067	0.0078
601.4973	0.0136
601.6879	0.0048
601.8785	0.0064
602.0691	0.0025
602.2596	0.003
602.4502	0.0062
602.6407	0.01
602.8312	0.007
603.0217	0.0081
603.2122	0.0024
603.4027	0.0042
603.5931	0.0036
603.7835	0.0078
603.9739	-0.0004
604.1643	0.0078
604.3547	0.0121
604.5451	0.009
604.7354	0.0055
604.9257	0.0047
605.116	0.001
605.3063	0.0085
605.4966	0.0052
605.6869	0.0086
605.8771	0.008
606.0673	0.0044
606.2575	0.0082
606.4477	0.0094
606.6379	-0.0002
606.8281	0.0064
607.0182	0.0081
607.2083	0.0075
607.3985	0.0005
607.5885	0.006
607.7786	0.0024
607.9687	0.01
608.1587	0.0048
608.3488	0.0049
608.5388	0.0043
608.7288	0.0038
608.9187	0.006
609.1087	0.0066
609.2986	0.0044
609.4886	0.0048
609.6785	0.0038
609.8684	0.0002
610.0582	0.0002
610.2481	-0.0011
610.4379	0.0107
610.6278	0.0067
610.8176	0.0101
611.0074	-0.0027
611.1971	0.0057
611.3869	0.0086
611.5766	-0.0042
611.7664	0.0091
611.9561	0.0066
612.1458	0.0015
612.3354	0.0103
612.5251	0.0028
612.7147	0.0069
612.9044	-0.0003
613.094	0.0051
613.2836	0.0071
613.4731	0.0046
613.6627	0.0052
613.8522	0.0109
614.0417	0.0026
614.2313	0.0083
614.4207	0.0074
614.6102	0.0043
614.7997	0.0109
614.9891	0.0058
615.1785	-0.0025
615.3679	0.0107
615.5573	0.0005
615.7467	0.0045
615.9361	0.0042
616.1254	0.0101
616.3147	0.0061
616.504	0.0058
616.6933	0.006
616.8826	0.0041
617.0718	0.0091
617.2611	-0.0042
617.4503	0.0006
617.6395	0.0041
617.8287	0.0093
618.0179	0.0015
618.207	0.018
618.3961	0.0047
618.5853	0.0089
618.7744	0.0068
618.9634	0.0138
619.1525	0.0032
619.3416	-0.0015
619.5306	0.0107
619.7196	0.006
619.9086	0.0087
620.0976	-0.001
620.2866	0.0113
620.4755	0.0028
620.6645	0.0173
620.8534	0.0086
621.0423	0.0044
621.2312	-0.006
621.42	0.0036
621.6089	0.0125
621.7977	0.0054
621.9865	-0.0012
622.1753	-0.0072
622.3641	-0.003
622.5529	-0.0007
622.7416	0.002
622.9303	0.004
623.1191	0.0097
623.3078	0.0054
623.4964	0.0095
623.6851	0.0114
623.8737	0.0095
624.0624	-0.0118
624.251	0.0064
624.4396	0.0015
624.6282	0.0168
624.8167	0.0083
625.0053	0.0097
625.1938	0.0043
625.3823	0.0037
625.5708	0.0018
625.7593	-0.0048
625.9477	0.011
626.1362	-0.0023
626.3246	0.0101
626.513	0.0129
626.7014	0.0171
626.8898	0.0098
627.0781	0.0081
627.2665	0.0166
627.4548	-0.0012
627.6431	0.0092
627.8314	0.0204
628.0197	0.0074
628.2079	0.0037
628.3962	-0.0012
628.5844	-0.0024
628.7726	0.0073
628.9608	0.0112
629.1489	0.0027
629.3371	0.0014
629.5252	0.0075
629.7134	-0.0005
629.9015	0.0136
630.0895	-0.0042
630.2776	0.0158
630.4657	0.007
630.6537	0.0102
630.8417	0.0021
631.0297	0.001
631.2177	0.0049
631.4057	0.0073
631.5936	0.0007
631.7815	0.0189
631.9695	0.0163
632.1574	0.0077
632.3452	0.0019
632.5331	0.0102
632.7209	0.0122
632.9088	-0.0026
633.0966	0.0353
633.2844	0.0042
633.4722	0.0106
633.6599	0.0183
633.8477	0.0033
634.0354	0.0152
634.2231	0.0034
634.4108	0.0005
634.5985	0.0117
634.7861	-0.0028
634.9738	0.0012
635.1614	-0.0008
635.349	0.0085
635.5366	0.0062
635.7242	0.0124
635.9117	0.0073
636.0993	0.0072
636.2868	-0.0024
636.4743	0.0043
636.6618	0.0018
636.8492	0.0189
637.0367	0.0036
637.2241	0.0129
637.4115	0.0345
637.5989	0.007
637.7863	0.02
637.9737	0.003
638.161	0.0016
638.3484	0.012
638.5357	-0.0036
638.723	0.0289
638.9103	-0.0088
639.0975	-0.0089
639.2848	0.0103
639.472	0.0068
639.6592	-0.0109
639.8464	0.0053
640.0336	0.0158
640.2208	0.0045
640.4079	-0.0024
640.595	-0.01
640.7821	0.0113
640.9692	0.0045
641.1563	0.0067
641.3434	-0.0027
641.5304	0.0059
641.7174	0.019
641.9044	0.0034
642.0914	0.0141
642.2784	0.0016
642.4653	-0.0139
642.6523	0.021
642.8392	0.0151
643.0261	0.0231
643.213	0.0048
643.3999	0.0246
643.5867	0.0098
643.7735	0.0026
643.9604	0.0141
644.1472	0.0013
644.3339	-0.0051
644.5207	0.0051
644.7075	0.0064
644.8942	0.009
645.0809	0.0066
645.2676	-0.0078
645.4543	0.0053
645.6409	0.0234
645.8276	0.0122
646.0142	0.0046
646.2008	0.0063
646.3874	0.0106
646.574	-0.0023
646.7605	-0.0045
646.9471	0.0022
647.1336	-0.016
647.3201	0.0074
647.5066	0.002
647.6931	0.0055
647.8795	0.0031
648.0659	-0.0102
648.2524	0.0052
648.4388	0.0081
648.6252	0.01
648.8115	0.0011
648.9979	-0.0004
649.1842	0.0055
649.3705	0.0105
649.5568	-0.01
649.7431	0.0115
649.9294	0.0018
650.1156	-0.0013
650.3018	0.0048
650.488	0.0005
650.6742	0.028
650.8604	0.0194
651.0466	0.0241
651.2327	0.0097
651.4188	0.0128
651.6049	0.0101
651.791	0.0137
651.9771	0.0226
652.1632	0.0112
652.3492	0.0133
652.5352	0.0295
652.7212	0.0131
652.9072	0.0055
653.0932	0.0057
653.2791	0.0055
653.465	0.0179
653.651	0.0155
653.8369	0.0056
654.0227	-0.0024
654.2086	0.0245
654.3944	-0.0013
654.5803	0.0032
654.7661	0.0056
654.9519	0.0009
655.1377	0.0002
655.3234	0.0002
655.5092	0.0002
655.6949	0.0002
655.8806	0.0002
656.0663	0.0002
656.2519	0.0002
656.4376	0.0002
656.6232	0.0002
656.8088	0.0002
656.9945	0.0002
657.18	0.0002
657.3656	0.0002
657.5511	0.0002
657.7367	0.0002
657.9222	0.0002
658.1077	0.0002
658.2932	0.0002
658.4786	0.0002
658.6641	0.0002
658.8495	0.0002
659.0349	0.0002
659.2203	0.0002
659.4057	0.0002
659.591	0.1844
659.7764	0.0315
659.9617	0.0057
660.147	-0.008
660.3323	0.0139
660.5176	-0.0121
660.7028	0.0018
660.888	0.0098
661.0733	0.0071
661.2585	0.0094
661.4436	0.014
661.6288	0.0002
661.8139	-0.0134
661.9991	-0.0099
662.1842	-0.0171
662.3693	0.007
662.5544	0.0105
662.7394	0.0253
662.9245	-0.0022
663.1095	-0.0068
663.2945	0.0031
663.4795	-0.0095
663.6644	0.0021
663.8494	0.0123
664.0343	0.0064
664.2193	-0.0011
664.4042	0.0128
664.589	0.0091
664.7739	-0.0054
664.9587	-0.0018
665.1436	0.0091
665.3284	-0
665.5132	-0.0379
665.698	0.011
665.8827	0.0039
666.0675	0.0044
666.2522	0.0251
666.4369	0.0105
666.6216	0.0106
666.8063	-0.0048
666.9909	-0.0007
667.1756	0.0059
667.3602	-0.0133
667.5448	0.0155
667.7294	0.0324
667.9139	-0.0062
668.0985	0.0243
668.283	0.0159
668.4675	0.0251
668.652	0.0348
668.8365	-0.0182
669.0209	0.0123
669.2054	0.0214
669.3898	-0.0088
669.5742	0.0202
669.7586	0.0168
669.943	0.0098
670.1273	-0.018
670.3117	0.0114
670.496	0.0375
670.6803	0.014
670.8646	-0.0202
671.0488	0.0369
671.2331	-0.0106
671.4173	0.0055
671.6015	-0.0043
671.7857	0.0158
671.9699	0.0184
672.1541	0.0018
672.3382	0.0123
672.5223	0.0049
672.7064	0.0071
672.8905	0.0194
673.0746	0.018
673.2587	0.0243
673.4427	0.0081
673.6267	0.0355
673.8107	0.0213
673.9947	0.0229
674.1787	0.0227
674.3626	0.0056
674.5465	0.0031
674.7304	-0.0062
674.9143	0.025
675.0982	-0.0043
675.2821	0.0134
675.4659	-0.008
675.6497	0.0194
675.8335	0.0287
676.0173	-0.0104
676.2011	0.0176
676.3849	0.0057
676.5686	0.0029
676.7523	-0.0159
676.936	0.0132
677.1197	-0.0104
677.3034	0.0234
677.487	0.0056
677.6706	0.0137
677.8542	0.0153
678.0378	0.0148
678.2214	0.0126
678.405	0.0268
678.5885	0.0167
678.772	0.0122
678.9555	-0.0034
679.139	0.0153
679.3225	0.0039
679.5059	0.0046
679.6894	0.0114
679.8728	0.0076
680.0562	-0.0022
680.2395	0.0078
680.4229	0.0057
680.6062	-0.0012
680.7896	-0.0013
680.9729	0.0184
681.1562	-0.0007
681.3394	-0.0074
681.5227	0.0225
681.7059	0.0195
681.8891	0.0148
682.0723	0.0131
682.2555	0.0226
682.4387	0.0064
682.6218	0.0187
682.805	0.0092
682.9881	0.0149
683.1712	0.014
683.3542	0.0231
683.5373	-0.007
683.7203	0.0151
683.9034	0.0049
684.0864	-0.0066
684.2694	0.0116
684.4523	-0.0004
684.6353	0.0031
684.8182	-0.0096
685.0011	0.0216
685.184	0.005
685.3669	0.0101
685.5498	-0.0086
685.7326	-0.0056
685.9154	-0.0032
686.0982	0.0072
686.281	-0.0082
686.4638	0.0035
686.6465	-0.0025
686.8293	-0.0073
687.012	0.0134
687.1947	-0.0071
687.3774	0.0209
687.56	-0.0027
687.7427	0.0007
687.9253	0.0002
688.1079	0.0119
688.2905	0.0051
688.4731	0.0017
688.6556	0.0275
688.8382	-0.0152
689.0207	0.0037
689.2032	0.0209
689.3857	-0.0027
689.5681	-0.0192
689.7506	0.0207
689.933	-0.0001
690.1154	0.0109
690.2978	0.0061
690.4802	0.0079
690.6626	0.0123
690.8449	0.0203
691.0272	-0.0095
691.2095	-0
691.3918	0.0228
691.5741	0.0127
691.7563	0.009
691.9386	0.026
692.1208	0.0254
692.303	-0.0025
692.4852	-0.0003
692.6673	0.0073
692.8495	0.0111
693.0316	0.0118
693.2137	0.0205
693.3958	0.007
693.5778	-0.0024
693.7599	-0.0127
693.9419	-0.023
694.1239	0.01
694.3059	0.0032
694.4879	0.004
694.6699	0.0039
694.8518	0.0256
695.0337	-0.0052
695.2157	0.0454
695.3975	-0.0086
695.5794	-0.0161
695.7613	0.01
695.9431	-0.0186
696.1249	0.0181
696.3067	0.0044
696.4885	0.0182
696.6703	0.0089
696.852	-0.0063
697.0337	0.0229
697.2154	0.0147
697.3971	0.0201
697.5788	0.0106
697.7605	-0.0046
697.9421	0.0294
698.1237	0.0262
698.3053	0.0034
698.4869	0.004
698.6685	-0.0051
698.85	0.0171
699.0315	-0.0013
699.213	0.0098
699.3945	0.0116
699.576	0.0226
699.7575	-0.0083
699.9389	0.0178
700.1203	0.0116
700.3017	-0.0016
700.4831	0.0429
700.6645	0.0306
700.8458	-0.0102
701.0271	0.0345
701.2084	0.0277
701.3897	0.0082
701.571	0.0049
701.7523	0.0062
701.9335	0.0199
702.1147	0.0228
702.2959	0.0036
702.4771	0.0068
702.6583	0.0063
702.8394	-0.0094
703.0205	0.0254
703.2016	-0.0249
703.3827	-0.0043
703.5638	0.0205
703.7449	0.0261
703.9259	-0.0181
704.1069	-0.0041
704.2879	0.0114
704.4689	0.0151
704.6499	0.047
704.8308	0.0093
705.0117	0.002
705.1927	0.018
705.3735	0.0287
705.5544	0.0063
705.7353	-0.0055
705.9161	-0.0078
706.0969	0.0107
706.2777	0.0194
706.4585	0.0185
706.6393	0.0055
706.82	0.02
707.0007	0.0066
707.1815	-0.0016
707.3621	0.0273
707.5428	0.025
707.7235	0.0095
707.9041	0.0222
708.0847	0.0065
708.2653	0.0436
708.4459	0.0099
708.6265	0.0006
708.807	0.0052
708.9875	-0.0015
709.168	-0.0057
709.3485	0.0267
709.529	0.01
709.7095	-0.0119
709.8899	0.0055
710.0703	0.0212
710.2507	0.0219
710.4311	-0.0248
710.6115	0.0337
710.7918	0.0013
710.9721	0.0271
711.1524	-0.0213
711.3327	0.0003
711.513	0.0145
711.6932	-0.0055
711.8735	0.0216
712.0537	-0.0069
712.2339	0.0089
712.4141	0.0218
712.5942	-0.0217
712.7744	0.0083
712.9545	0.0099
713.1346	0.0277
713.3147	0.0122
713.4947	-0.0039
713.6748	0.0219
713.8548	0.0186
714.0348	0.0272
714.2148	0.0027
714.3948	0.0115
714.5748	0.0123
714.7547	0.0072
714.9346	0.0075
715.1145	0.0148
715.2944	-0.0235
715.4743	0.0257
715.6541	0.0112
715.834	0.014
716.0138	0.0382
716.1936	0.0123
716.3733	0.009
716.5531	-0.0001
716.7328	0.0173
716.9126	0.0236
717.0923	-0.0017
717.2719	0.0091
717.4516	-0.0121
717.6312	-0.034
717.8109	0.0325
717.9905	0.0059
718.1701	0.0355
718.3496	0.0304
718.5292	-0.0042
718.7087	0.0132
718.8882	0.0296
719.0677	-0.0044
719.2472	-0.0029
719.4267	0.0108
719.6061	-0.0298
719.7856	0.0173
719.965	0.0029
720.1443	-0.0043
720.3237	0.0015
720.5031	0.0303
720.6824	-0.0157
720.8617	-0.0008
721.041	0.0264
721.2203	-0.0069
721.3995	-0.0169
721.5788	0.0103
721.758	-0.0058
721.9372	0.0056
722.1164	0.0156
722.2956	0.0128
722.4747	0.0008
722.6538	0.0115
722.8329	0.0228
723.012	0.0081
723.1911	-0.0072
723.3702	0.0128
723.5492	0.0165
723.7282	-0.009
723.9072	-0.006
724.0862	0.0031
724.2652	0.0117
724.4441	0.0065
724.623	0.0071
724.8019	0.0219
724.9808	0.0054
725.1597	0.0099
725.3385	0.0182
725.5174	0.0078
725.6962	0.0234
725.875	0.0103
726.0538	0.0212
726.2325	0.0277
726.4112	-0.0067
726.59	0.0093
726.7687	0.0078
726.9474	0.0262
727.126	0.0253
727.3047	0.0335
727.4833	0.0087
727.6619	-0.0298
727.8405	0.0041
728.0191	0.0252
728.1976	0.018
728.3762	0.022
728.5547	0.0088
728.7332	0.0347
728.9116	0.0033
729.0901	0.0063
729.2686	0.0255
729.447	-0.0029
729.6254	0.0146
729.8038	0.0031
729.9821	-0.0091
730.1605	0.0215
730.3388	0.0103
730.5171	0.0145
730.6954	-0.004
730.8737	0.0133
731.0519	-0.0098
731.2302	0.0214
731.4084	0.014
731.5866	0.0204
731.7648	0.0072
731.9429	0.0183
732.1211	0.0029
732.2992	-0.0018
732.4773	0.0008
732.6554	-0.0218
732.8335	0.035
733.0115	0.0166
733.1896	-0.0153
733.3676	0.0135
733.5456	0.0064
733.7235	-0.0138
733.9015	0.0083
734.0794	0.0074
734.2574	-0.0212
734.4353	0.0138
734.6131	0.0073
734.791	0.0125
734.9689	-0.0065
735.1467	-0.008
735.3245	0.0365
735.5023	0.001
735.68	0.0013
735.8578	-0.0048
736.0355	0.0221
736.2132	-0.0053
736.3909	0.0148
736.5686	0.009
736.7463	-0.0056
736.9239	0.0336
737.1015	0.0264
737.2791	0.0009
737.4567	0.0053
737.6343	-0.0033
737.8118	0.0234
737.9894	0.012
738.1669	-0.0053
738.3444	0.0532
738.5218	0.0046
738.6993	0.0161
738.8767	0.005
739.0541	-0.0043
739.2315	-0.0024
739.4089	0.0279
739.5863	0.0044
739.7636	-0.0219
739.9409	0.0062
740.1182	0.0216
740.2955	0.0488
740.4728	0.0122
740.65	-0.0084
740.8272	0.0443
741.0044	0.0095
741.1816	0.0431
741.3588	-0.0113
741.5359	-0.0031
741.7131	0.0143
741.8902	0.0134
742.0673	-0.0323
742.2444	0.0237
742.4214	0.028
742.5985	0.0037
742.7755	0.0234
742.9525	-0.0248
743.1295	-0.033
743.3064	-0.0269
743.4834	-0.0016
743.6603	0.064
743.8372	-0.034
744.0141	0.0321
744.191	0.0132
744.3678	-0.0093
744.5446	-0.0086
744.7215	0.0278
744.8982	0.0206
745.075	0.0412
745.2518	0.0285
745.4285	0.0384
745.6052	-0.0408
745.7819	0.0117
745.9586	-0.013
746.1353	-0.0102
746.3119	0.0181
746.4885	0.0396
746.6651	-0.0005
746.8417	0.0063
747.0183	0.0201
747.1948	-0.0009
747.3714	0.0133
747.5479	0.0479
747.7244	0.0016
747.9008	0.0228
748.0773	0.041
748.2537	0.0116
748.4301	0.0228
748.6065	-0.0208
748.7829	-0.0185
748.9593	0.0061
749.1356	0.0167
749.3119	0.0115
749.4882	0.0279
749.6645	0.0036
749.8408	0.0161
750.017	0.0064
750.1933	-0.0071
750.3695	0.0055
750.5457	0.0106
750.7218	-0.0257
750.898	0.0043
751.0741	-0.0048
751.2502	0.004
751.4263	0.0053
751.6024	-0.0125
751.7784	0.0267
751.9545	-0.0081
752.1305	0.0122
752.3065	0.0158
752.4825	-0.0029
752.6584	0.0183
752.8344	-0.003
753.0103	-0.0125
753.1862	0.0338
753.3621	-0.0033
753.5379	0.0087
753.7138	0.0126
753.8896	0.0146
754.0654	-0.0091
754.2412	0.0104
754.417	0.0198
754.5927	-0.0021
754.7685	0.0247
754.9442	0.016
755.1199	0.0177
755.2956	0.0262
755.4712	0.0194
755.6469	-0.0026
755.8225	0.0167
755.9981	0.0327
756.1736	0.0059
756.3492	-0.0032
756.5248	0.0156
756.7003	-0.0031
756.8758	0.0077
757.0513	0.0018
757.2267	-0.0031
757.4022	-0.0022
757.5776	-0.0032
757.753	0.0203
757.9284	0.0075
758.1038	0.0211
758.2791	0.0189
758.4545	-0.0009
758.6298	0.023
758.8051	0.0111
758.9803	0.0057
759.1556	0.0186
759.3308	0.0105
759.506	0.0042
759.6812	0.0145
759.8564	-0.0019
760.0316	-0.0039
760.2067	0.0216
760.3819	0.0022
760.557	0.0119
760.732	-0.0003
760.9071	0.0126
761.0821	-0.0011
761.2572	0.0126
761.4322	0.0153
761.6072	0.0197
761.7821	-0.0335
761.9571	0.0112
762.132	0.0084
762.3069	0.0181
762.4818	0.0352
762.6567	0.0084
762.8316	0.0267
763.0064	0.0128
763.1812	0.0028
763.356	-0.0108
763.5308	0.0282
763.7055	0.0078
763.8803	-0.0028
764.055	-0.0013
764.2297	-0.0116
764.4044	0.0006
764.579	-0.0191
764.7537	0.0056
764.9283	0.0071
765.1029	-0.0101
765.2775	0.0273
765.4521	0.0036
765.6266	0.0123
765.8011	0.0082
765.9756	-0.0004
766.1501	-0.0084
766.3246	0.0045
766.4991	0.0221
766.6735	0.0456
766.8479	0.0223
767.0223	0.0183
767.1967	0.0401
767.371	0.0588
767.5454	0.0264
767.7197	0.0079
767.894	-0.0001
768.0683	0.0347
768.2425	0.0088
768.4168	0.0448
768.591	-0.0098
768.7652	-0.0145
768.9394	-0.0448
769.1135	0.0342
769.2877	0.0324
769.4618	0.0324
769.6359	-0.005
769.81	0.0183
769.984	-0.0079
770.1581	0.0152
770.3321	0.0261
770.5061	0.0017
770.6801	0.0228
770.8541	0.0097
771.028	0.0518
771.202	0.0342
771.3759	0.0069
771.5498	0.014
771.7236	0.0215
771.8975	0.034
772.0713	0.0139
772.2451	-0.0163
772.4189	0.0112
772.5927	-0.0231
772.7665	-0.0172
772.9402	0.0291
773.1139	0.0055
773.2876	-0.0012
773.4613	0.0195
773.635	0.0198
773.8086	0.0387
773.9822	0.0494
774.1558	0.0669
774.3294	0.0123
774.503	0.0292
774.6765	0.0488
774.8501	0.0208
775.0236	0.0388
775.1971	-0.021
775.3705	0.0189
775.544	0.0008
775.7174	-0.0066
775.8908	0.0391
776.0642	0.0057
776.2376	0.0282
776.4109	0.0412
776.5843	-0.0491
776.7576	0.036
776.9309	0.0474
777.1041	-0.0527
777.2774	-0.066
777.4506	0.0024
777.6238	0.0087
777.797	0.049
777.9702	0.036
778.1434	0.0036
778.3165	-0.0327
778.4896	-0.0085
778.6627	0.0159
778.8358	-0.0047
779.0089	-0.0131
779.1819	0.0572
779.3549	0.0164
779.5279	-0.004
779.7009	0.0489
779.8739	0.0742
780.0468	-0.0133
780.2197	0.0281
780.3926	-0.0001
780.5655	0.0259
780.7384	0.0178
780.9112	0.0569
781.0841	0.0252
781.2569	0.0264
781.4297	-0.0041
781.6024	0.0252
781.7752	0.0394
781.9479	0.027
782.1206	0.0101
782.2933	0.0108
782.466	0.0388
782.6386	-0.0041
782.8113	0.0324
782.9839	0.0216
783.1565	-0.0056
783.329	-0.0303
783.5016	0.0005
783.6741	-0.0025
783.8466	0.0282
784.0191	0.031
784.1916	0.0292
784.3641	0.0211
784.5365	0.0068
784.7089	0.0134
784.8813	0.0393
785.0537	0.0289
785.2261	0.0081
785.3984	0.0104
785.5707	-0.0182
785.743	0.0512
785.9153	-0.0082
786.0876	-0.0401
786.2598	-0.0016
786.432	-0.0031
786.6042	0.0136
786.7764	0.0194
786.9486	0.0175
787.1207	0.0293
787.2928	0.0468
787.4649	-0.0078
787.637	0.0478
787.8091	0.0246
787.9811	0.019
788.1532	0.0139
788.3252	-0.02
788.4972	-0.0099
788.6691	0.0429
788.8411	0.0035
789.013	0.0344
789.1849	-0.0329
789.3568	0.0126
789.5287	0.0972
789.7005	-0.0058
789.8723	-0.0185
790.0442	-0.0243
790.2159	0.0242
790.3877	0.0608
790.5595	0.0299
790.7312	0.0028
790.9029	-0.0113
791.0746	-0.0212
791.2463	-0.0369
791.4179	0.0407
791.5896	0.089
791.7612	0.069
791.9328	-0.0209
792.1044	0.0354
792.2759	0.0227
792.4474	0.0188
792.619	-0.0036
792.7905	0.0125
792.9619	0.0388
793.1334	0.0681
793.3048	0.0484
793.4762	-0.0001
793.6476	-0.0048
793.819	-0.0021
793.9904	-0.0208
794.1617	-0.0013
794.333	-0.0087
794.5043	0.021
794.6756	-0.0176
794.8469	0.0116
795.0181	0.0037
795.1893	0.0656
795.3605	0.0442
795.5317	0.0252
795.7029	-0.0134
795.874	-0.0166
796.0452	0.0292
796.2163	0.0715
796.3873	0.0797
796.5584	0.1065
796.7294	0.0088
796.9005	0.0285
797.0715	-0.0394
797.2425	0.0766
797.4134	0.0866
797.5844	0.0253
797.7553	-0.0236
797.9262	0.0824
798.0971	-0.0084
798.2679	0.0364
798.4388	0.0362
798.6096	0.0367
798.7804	0.046
798.9512	0.0719
799.122	-0.0487
799.2927	0.0495
799.4635	-0.0234
799.6342	-0.0226
799.8049	0.1236
799.9755	-0.0565
800.1462	0.0352
800.3168	0.0037
800.4874	-0.0454
800.658	0.022
800.8286	-0.0373
800.9991	0.0426
801.1696	0.0314
801.3402	-0.0601
801.5106	-0.0024
801.6811	0.0367
801.8516	0.0652
802.022	-0.0259
802.1924	-0.0305
802.3628	0.0322
802.5332	0.0624
802.7035	0.0948
802.8739	0.0852
803.0442	0.0286
803.2145	0.0923
803.3847	0.0369
803.555	0.105
803.7252	0.0465
803.8954	0.0268
804.0656	0.0246
804.2358	0.0793
804.4059	0.0369
804.5761	-0.0435
804.7462	0.0413
804.9163	-0.008
805.0864	0.0533
805.2564	0.067
805.4264	-0.0117
805.5965	0.1225
805.7665	-0.0422
805.9364	-0.017
806.1064	0.0189
806.2763	0.0241
806.4462	0.0498
806.6161	0.066
806.786	0.0245
806.9559	0.0374
807.1257	-0.0544
807.2955	-0.0058
807.4653	0.0423
807.6351	0.0904
807.8048	0.0136
807.9746	0.0741
808.1443	-0.0122
808.314	0.0625
808.4837	0.0321
808.6533	0.0288
808.8229	0.0012
808.9926	0.0609
809.1622	0.0214
809.3317	0.0526
809.5013	-0.0387
809.6708	0.0342
809.8403	0.0511
810.0098	0.1034
810.1793	-0.0247
810.3488	-0.0712
810.5182	0.09
810.6876	-0.0155
810.857	0.1359
811.0264	0.0021
811.1958	0.1098
811.3651	-0.0143
811.5344	0.1522
811.7037	0.0309
811.873	0.1138
812.0422	-0.0993
812.2115	0.0043
812.3807	-0.0858
812.5499	0.0947
812.7191	-0.08
812.8882	-0.0067
813.0574	0.1695
813.2265	0.1175
813.3956	0.0434
813.5646	0.0927
813.7337	0.0694
813.9027	-0.0579
814.0718	-0.0379
814.2407	0.0279
814.4097	0.1384
814.5787	0.1311
814.7476	0.0267
814.9165	0.0461
815.0854	-0.0059
815.2543	0.0706
815.4232	0.19
815.592	0.0418
815.7608	-0.1289
815.9296	0.1101
816.0984	0.0555
816.2671	-0.1962
816.4359	0.1315
816.6046	0.015
816.7733	-0.0956
816.942	-0.0625
817.1106	0.1923
817.2793	-0.072
817.4479	0.0188
817.6165	0.0227
817.785	0.0548
817.9536	-0.0368
818.1221	0.0568
818.2906	-0.0599
818.4591	0.1189
818.6276	-0.0077
818.7961	0.1681
818.9645	-0.0004
819.1329	0.2317
819.3013	0.0156
819.4697	-0.1738
819.638	0.0223
819.8064	0.0665
819.9747	0.1943
820.143	-0.0085
820.3113	0.1133
820.4795	0.0162
820.6477	0.2009
820.816	0.1519
820.9842	0.042
821.1523	0.1247
821.3205	0.0289
821.4886	-0.047
821.6567	-0.0261
821.8248	0.134
821.9929	-0.0823
822.1609	0.1406
822.329	-0.0034
822.497	0.0716
822.665	0.0226
822.833	0.0305
823.0009	0.1063
823.1688	0.1675
823.3367	-0.3108
823.5046	0.25
823.6725	0.0094
823.8404	0.1012
824.0082	-0.1088
824.176	0.0412
824.3438	0.0957
824.5116	-0.0403
824.6793	0.1175
824.847	0.0049
825.0147	-0.0758
825.1824	0.0734
825.3501	-0.0204
825.5177	0.0753
825.6854	-0.0909
825.853	0.0395
826.0206	0.033
826.1881	0.1814
826.3557	-0.0111
826.5232	0.2642
826.6907	0.0494
826.8582	-0.0336
827.0257	0.1743
827.1931	0.2904
827.3605	0.1536
827.528	0.0977
827.6953	-0.096
827.8627	0.1071
828.03	0.0849
828.1974	0.0566
828.3647	0.1536
828.532	0.1204
828.6992	0.1621
828.8665	-0.2348
829.0337	0.2256
829.2009	0.0277
829.3681	0.0911
829.5352	-0.282
829.7024	0.07
829.8695	0.0032
830.0366	0.2064
830.2037	0.1159
830.3707	0.0026
830.5378	0.1491
830.7048	0.0641
830.8718	0.2563
831.0388	0.1812
831.2057	0.0498
831.3727	-0.1699
831.5396	0.2824
831.7065	-0
831.8734	0.9005
832.0402	0.1791
832.2071	-0.4097
832.3739	-0.1712
832.5407	-1.0634
832.7075	-0.3196
832.8742	-0
833.041	0.0192
833.2077	1.2927
833.3744	0.3579
833.541	-0.0233
833.7077	-0.1693
833.8743	0.178
834.0409	0.2151
834.2075	0.2836
834.3741	-0.0218
834.5407	-0
834.7072	0.0115
834.8737	0.3612
835.0402	0.4294
835.2067	-0.101
835.3731	0.0627
835.5395	0.2206
835.706	0.041
835.8723	-0.1815
836.0387	0.0052
836.2051	0.8997
836.3714	-0.0276
836.5377	-0.2705
836.704	0.381
836.8703	-0.2957
837.0365	-0.7084
837.2027	-0
837.3689	0.2444
837.5351	0.0502
837.7013	-0.3808
837.8674	0.2777
838.0335	0.2253
838.1997	0.1642
838.3657	-0
838.5318	-0.4995
838.6978	-0
838.8639	-0.1895
839.0299	0.0811
839.1958	1.0338
839.3618	-0
839.5277	0.2156
839.6937	-0.0601
839.8596	0.0801
840.0254	0.1132
840.1913	0.4486
840.3571	0.5338
840.523	-1.7993
840.6888	0.0511
840.8545	-0.0334
841.0203	0.3015
841.186	1.0911
841.3517	-0.2054
841.5174	0.2759
841.6831	0.093
841.8488	0.0245
842.0144	0.3322
842.18	0.3459
842.3456	-0.6618
842.5112	-0
842.6767	0.1514
842.8422	-0.198
843.0077	-0.0079
843.1732	-0.1138
843.3387	0.6837
843.5042	-0.052
843.6696	-0.0722
843.835	-0.3109
844.0004	-0.182
844.1657	-0.5601
844.3311	0.0544
844.4964	-0
844.6617	-0
844.827	0.7409
844.9923	0.4113
845.1575	-0.4848
845.3227	-0
845.4879	-0.1376
845.6531	0.0673
845.8183	-0
845.9834	-0
846.1485	0.2811
846.3136	-0.2623
846.4787	-0
846.6438	-0.0403
846.8088	0.6503
846.9738	-0.4089
847.1388	0.1562
847.3038	-0
847.4687	0.2011
847.6337	-0.434
847.7986	-0.0163
847.9635	-0.0018
848.1284	-0
848.2932	0.1567
848.458	-0
848.6228	-0
848.7876	-0.0733
848.9524	0.191
849.1172	-1.3396
849.2819	-0.2281
849.4466	0.185
849.6113	0.0592
849.7759	-0
849.9406	-0
850.1052	-1.1379
850.2698	0.0301
850.4344	-0.3442
850.599	-0.1315
850.7635	0.48
850.928	0.1716
851.0925	1.1974
851.257	-0
851.4215	-0
851.5859	0.3378
851.7503	-0
851.9147	0.1324
852.0791	0.0532
852.2434	0.4477
852.4078	0.3277
852.5721	0.0267
852.7364	0.1311
852.9007	0.0349
853.0649	-0
853.2291	0.7789
853.3934	-0
853.5575	-0.2928
853.7217	0.1208
853.8859	-0
854.05	-0.4517
854.2141	0.6063
854.3782	0.4659
854.5423	-0.1657
854.7063	-0.0197
854.8703	0.1502
855.0343	0.1271
855.1983	0.0549
855.3623	0.3189
855.5262	-0
855.6901	0.5174
855.854	0.0692
856.0179	-0.0876
856.1818	-0
856.3456	0.8545
856.5094	-0.0978
856.6732	-0.5594
856.837	-0
857.0008	-0
857.1645	-0
857.3282	-0.2948
857.4919	-0.0013
857.6556	-0.5011
857.8192	-0.2583
857.9828	-0.1598
858.1465	-0.1528
858.31	-0
858.4736	-0.5169
858.6372	-0.3302
858.8007	0.0371
858.9642	0.9891
859.1277	-0
859.2911	-0.2952
859.4546	-0
859.618	1.155
859.7814	0.0773
859.9448	0.9766
860.1081	-0
860.2715	-0
860.4348	-0.0272
860.5981	1.0155
860.7614	-0
860.9246	0.0829
861.0879	0.4176
861.2511	-0
861.4143	-0
861.5774	-0.2503
861.7406	-0.1676
861.9037	0.1053
862.0668	-0.3278
862.2299	0.5668
862.393	-0.2932
862.556	-0.2736
862.7191	-0.5212
862.8821	0.1385
863.0451	0.8153
863.208	0.0298
863.371	-0.0978
863.5339	0.2182
863.6968	1.169
863.8597	-0
864.0225	1.0705
864.1854	-0
864.3482	0.1691
864.511	-0.066
864.6737	-0
864.8365	0.1801
864.9992	-0
865.1619	-0.3483
865.3246	-0
865.4873	-0
865.65	0.0692
865.8126	-0
865.9752	0.1934
866.1378	0.5236
866.3004	-0.0972
866.4629	-2.0176
866.6254	-0
866.7879	-0
866.9504	1.6198
867.1129	-0.4568
867.2753	-0.0126
867.4377	0.8821
867.6001	-0.0856
867.7625	-0.0993
867.9249	0.185
868.0872	0.2069
868.2495	-0
868.4118	-0
868.5741	-0
868.7363	-0
868.8986	-0.8012
869.0608	-0.4186
869.223	-0.224
869.3851	-0.3406
869.5473	-0.0182
869.7094	-0
869.8715	-0
870.0336	0.1624
870.1957	-0.5545
870.3577	0.4494
870.5197	-0.0445
870.6817	-0.4308
870.8437	-0
871.0057	-0.0546
871.1676	0.3064
871.3295	-0
871.4914	-0
871.6533	-0.5183
871.8151	-0
871.977	-0
872.1388	0.8526
872.3006	-0.597
872.4623	-0.1706
872.6241	-0
872.7858	-0.3642
872.9475	-0
873.1092	0.5875
873.2709	0.6223
873.4325	-1.8751
873.5941	0.3815
873.7557	-0
873.9173	-0
874.0789	0.0215
874.2404	-0
874.4019	-0.0718
874.5634	1.0726
874.7249	0.0603
874.8863	-0
875.0478	0.1194
875.2092	-0
875.3706	1.6057
875.5319	0.5684
875.6933	-0
875.8546	0.2746
876.0159	0.1534
876.1772	-0
876.3385	-0
876.4997	0.1425
876.6609	-0
876.8221	-0
876.9833	-0.0848
877.1445	0.8197
877.3056	-0.9814
877.4667	-0.3829
877.6278	-0
877.7889	0.0813
877.9499	-0.0753
878.111	-0.4463
878.272	-0
878.433	0.0556
878.5939	-0.0828
878.7549	0.5322
878.9158	-0
879.0767	0.3588
879.2376	0.0684
879.3984	0.6623
879.5593	-0
879.7201	-0
879.8809	0.0509
880.0417	0.1205
880.2024	-0
880.3632	-0
880.5239	0.5105
880.6846	-0.2904
880.8452	-0.1504
881.0059	-0
881.1665	-0.0494
881.3271	0.5906
881.4877	0.1544
881.6483	-0
881.8088	-0
881.9693	-0.6446
882.1298	-0.6446
882.2903	-0.6446
