Data from D4ACN5uM440nmA_Absorbance_13-50-26-632.txt Node
Date: Fri Feb 21 13:50:26 GMT 2025
User: LASERRRRR
Spectrometer: FLMT03099
Trigger mode: 0
Integration Time (sec): 1.500000E-2
Scans to average: 1
Electric dark correction enabled: true
Nonlinearity correction enabled: false
Boxcar width: 0
XAxis mode: Wavelengths
Number of Pixels in Spectrum: 3648
>>>>>Begin Spectral Data<<<<<
179.3399	-0.2083
179.5586	-0.2083
179.7771	-0.2083
179.9957	-0.1403
180.2143	-0
180.4329	0.4066
180.6514	-0
180.8699	-0
181.0885	0.0094
181.307	0.0361
181.5255	0.7876
181.744	-0
181.9625	-0
182.181	-0.137
182.3994	-0.0976
182.6179	-0.4369
182.8363	0.9819
183.0547	-0.1859
183.2732	0.0013
183.4916	0.2475
183.71	0.1639
183.9284	-0.0146
184.1467	0.3073
184.3651	0.0761
184.5835	0.2013
184.8018	0.1531
185.0201	0.5488
185.2385	0.4277
185.4568	-0.0022
185.6751	0.0957
185.8934	0.2601
186.1117	-0.0818
186.3299	0.2809
186.5482	0.1674
186.7664	0.1163
186.9847	-0.0167
187.2029	0.0232
187.4211	-0.0692
187.6393	0.215
187.8575	0.4619
188.0757	1.1612
188.2939	-0.0393
188.512	0.2263
188.7302	0.5085
188.9483	0.4345
189.1665	0.3508
189.3846	0.1311
189.6027	0.0805
189.8208	0.3128
190.0389	0.3481
190.257	-0.0116
190.475	0.0334
190.6931	0.2461
190.9111	0.3229
191.1292	0.091
191.3472	0.244
191.5652	0.3781
191.7832	0.0994
192.0012	0.1948
192.2192	0.1688
192.4371	0.167
192.6551	0.2175
192.873	0.1155
193.091	0.1484
193.3089	0.2027
193.5268	0.2584
193.7447	0.1447
193.9626	0.1943
194.1805	0.264
194.3984	0.2245
194.6162	0.2184
194.8341	0.2932
195.0519	0.2528
195.2697	0.2978
195.4875	0.3052
195.7054	0.2497
195.9231	0.2061
196.1409	0.3542
196.3587	0.3116
196.5765	0.3787
196.7942	0.3222
197.012	0.3551
197.2297	0.3132
197.4474	0.3834
197.6651	0.3437
197.8828	0.4264
198.1005	0.4261
198.3182	0.3529
198.5358	0.3581
198.7535	0.3594
198.9711	0.3626
199.1888	0.4064
199.4064	0.4504
199.624	0.4155
199.8416	0.3576
200.0592	0.4054
200.2767	0.3785
200.4943	0.4208
200.7119	0.42
200.9294	0.3954
201.1469	0.472
201.3645	0.4556
201.582	0.3971
201.7995	0.4447
202.017	0.421
202.2344	0.397
202.4519	0.4134
202.6694	0.3967
202.8868	0.4228
203.1042	0.4116
203.3217	0.4417
203.5391	0.391
203.7565	0.3607
203.9739	0.3957
204.1913	0.3144
204.4086	0.3562
204.626	0.3435
204.8433	0.3689
205.0607	0.3679
205.278	0.3388
205.4953	0.3591
205.7126	0.3527
205.9299	0.31
206.1472	0.313
206.3644	0.356
206.5817	0.3143
206.7989	0.3283
207.0162	0.3162
207.2334	0.3355
207.4506	0.3065
207.6678	0.3247
207.885	0.2957
208.1022	0.3169
208.3194	0.2798
208.5365	0.3067
208.7537	0.2886
208.9708	0.2989
209.1879	0.2976
209.405	0.2825
209.6222	0.2786
209.8392	0.2691
210.0563	0.2677
210.2734	0.2597
210.4905	0.2773
210.7075	0.2919
210.9245	0.2581
211.1416	0.2629
211.3586	0.2813
211.5756	0.2302
211.7926	0.2394
212.0096	0.2526
212.2265	0.2664
212.4435	0.2393
212.6604	0.2502
212.8774	0.25
213.0943	0.2551
213.3112	0.2424
213.5281	0.234
213.745	0.2476
213.9619	0.2369
214.1788	0.2606
214.3956	0.2359
214.6125	0.2575
214.8293	0.2508
215.0461	0.2471
215.2629	0.2351
215.4798	0.2465
215.6965	0.261
215.9133	0.2355
216.1301	0.2326
216.3469	0.2554
216.5636	0.2249
216.7803	0.2457
216.9971	0.2651
217.2138	0.2548
217.4305	0.2545
217.6472	0.246
217.8639	0.2571
218.0805	0.2516
218.2972	0.2464
218.5138	0.2603
218.7305	0.2536
218.9471	0.2414
219.1637	0.2603
219.3803	0.2521
219.5969	0.245
219.8135	0.2497
220.0301	0.2498
220.2466	0.2477
220.4632	0.2553
220.6797	0.2601
220.8962	0.2561
221.1127	0.2587
221.3292	0.2618
221.5457	0.2733
221.7622	0.2634
221.9787	0.287
222.1951	0.2717
222.4116	0.2717
222.628	0.2678
222.8444	0.2732
223.0608	0.2713
223.2772	0.2776
223.4936	0.2674
223.71	0.2883
223.9264	0.2809
224.1427	0.2808
224.3591	0.2806
224.5754	0.2874
224.7917	0.2871
225.008	0.3001
225.2243	0.2909
225.4406	0.2906
225.6569	0.3074
225.8732	0.3188
226.0894	0.2898
226.3057	0.3098
226.5219	0.3254
226.7381	0.3079
226.9543	0.3144
227.1705	0.3104
227.3867	0.317
227.6029	0.334
227.8191	0.3279
228.0352	0.3422
228.2513	0.3302
228.4675	0.3383
228.6836	0.3465
228.8997	0.3374
229.1158	0.3502
229.3319	0.3509
229.548	0.3549
229.764	0.3607
229.9801	0.37
230.1961	0.3703
230.4121	0.3642
230.6282	0.3735
230.8442	0.383
231.0602	0.3866
231.2761	0.3895
231.4921	0.3884
231.7081	0.4014
231.924	0.395
232.14	0.4027
232.3559	0.4116
232.5718	0.4144
232.7877	0.414
233.0036	0.4117
233.2195	0.4104
233.4353	0.4181
233.6512	0.4225
233.867	0.4254
234.0829	0.4243
234.2987	0.4305
234.5145	0.4256
234.7303	0.4343
234.9461	0.4358
235.1619	0.4408
235.3776	0.4303
235.5934	0.4249
235.8091	0.456
236.0249	0.4445
236.2406	0.4443
236.4563	0.4439
236.672	0.4449
236.8877	0.4553
237.1034	0.4542
237.319	0.4541
237.5347	0.4491
237.7503	0.4501
237.966	0.4548
238.1816	0.4543
238.3972	0.4564
238.6128	0.4709
238.8284	0.4652
239.0439	0.4584
239.2595	0.4654
239.475	0.4671
239.6906	0.463
239.9061	0.4612
240.1216	0.4526
240.3371	0.4663
240.5526	0.4535
240.7681	0.461
240.9836	0.4707
241.199	0.4661
241.4145	0.454
241.6299	0.4576
241.8453	0.4446
242.0607	0.438
242.2761	0.4327
242.4915	0.432
242.7069	0.4224
242.9223	0.4274
243.1376	0.4217
243.353	0.4063
243.5683	0.3964
243.7836	0.3912
243.9989	0.386
244.2142	0.3808
244.4295	0.3714
244.6448	0.369
244.86	0.3565
245.0753	0.3526
245.2905	0.3486
245.5057	0.343
245.721	0.3372
245.9362	0.3287
246.1514	0.3269
246.3665	0.3115
246.5817	0.3063
246.7969	0.2998
247.012	0.2954
247.2271	0.2919
247.4423	0.2871
247.6574	0.2797
247.8725	0.2794
248.0876	0.2671
248.3026	0.2664
248.5177	0.2638
248.7328	0.2555
248.9478	0.2477
249.1628	0.2553
249.3779	0.2476
249.5929	0.2369
249.8079	0.2325
250.0228	0.2355
250.2378	0.2326
250.4528	0.2344
250.6677	0.2252
250.8827	0.2162
251.0976	0.2129
251.3125	0.2151
251.5274	0.2058
251.7423	0.2147
251.9572	0.209
252.172	0.2017
252.3869	0.2032
252.6017	0.2056
252.8166	0.2035
253.0314	0.1962
253.2462	0.1958
253.461	0.1979
253.6758	0.1946
253.8906	0.1949
254.1053	0.1993
254.3201	0.1931
254.5348	0.188
254.7496	0.1841
254.9643	0.1867
255.179	0.1874
255.3937	0.1932
255.6083	0.1901
255.823	0.1844
256.0377	0.1851
256.2523	0.1772
256.467	0.1861
256.6816	0.186
256.8962	0.1877
257.1108	0.1846
257.3254	0.1835
257.54	0.1809
257.7545	0.18
257.9691	0.183
258.1836	0.1753
258.3981	0.1815
258.6127	0.1755
258.8272	0.1758
259.0417	0.1811
259.2561	0.1763
259.4706	0.1798
259.6851	0.1754
259.8995	0.1754
260.114	0.1772
260.3284	0.1721
260.5428	0.1777
260.7572	0.1764
260.9716	0.1842
261.186	0.1789
261.4003	0.1735
261.6147	0.1786
261.829	0.179
262.0433	0.1802
262.2577	0.1787
262.472	0.1781
262.6863	0.1829
262.9005	0.1784
263.1148	0.1786
263.3291	0.1737
263.5433	0.1852
263.7576	0.1839
263.9718	0.1801
264.186	0.1828
264.4002	0.1862
264.6144	0.1896
264.8286	0.1906
265.0427	0.1861
265.2569	0.1878
265.471	0.187
265.6851	0.1927
265.8993	0.1878
266.1134	0.1829
266.3275	0.188
266.5415	0.187
266.7556	0.1907
266.9697	0.1962
267.1837	0.1842
267.3978	0.1874
267.6118	0.1804
267.8258	0.1888
268.0398	0.1911
268.2538	0.1835
268.4677	0.189
268.6817	0.1896
268.8957	0.186
269.1096	0.1856
269.3235	0.1835
269.5374	0.1855
269.7514	0.1842
269.9652	0.1832
270.1791	0.1793
270.393	0.1809
270.6068	0.1849
270.8207	0.1807
271.0345	0.1828
271.2483	0.1791
271.4622	0.1762
271.676	0.1822
271.8897	0.1794
272.1035	0.1863
272.3173	0.1808
272.531	0.1785
272.7448	0.1832
272.9585	0.1761
273.1722	0.1774
273.3859	0.1786
273.5996	0.1869
273.8133	0.1855
274.0269	0.1815
274.2406	0.186
274.4542	0.182
274.6679	0.188
274.8815	0.1882
275.0951	0.1891
275.3087	0.1891
275.5223	0.1875
275.7358	0.189
275.9494	0.1894
276.1629	0.1953
276.3765	0.1892
276.59	0.1908
276.8035	0.1882
277.017	0.1958
277.2305	0.2016
277.444	0.1984
277.6574	0.1928
277.8709	0.195
278.0843	0.1948
278.2978	0.1942
278.5112	0.1965
278.7246	0.1889
278.938	0.1951
279.1513	0.1975
279.3647	0.197
279.5781	0.1926
279.7914	0.1831
280.0047	0.1924
280.2181	0.1895
280.4314	0.1901
280.6447	0.2015
280.8579	0.1841
281.0712	0.1897
281.2845	0.1906
281.4977	0.1902
281.711	0.1855
281.9242	0.1895
282.1374	0.1883
282.3506	0.1864
282.5638	0.1857
282.7769	0.1865
282.9901	0.1882
283.2033	0.1902
283.4164	0.1885
283.6295	0.1915
283.8426	0.1837
284.0557	0.1856
284.2688	0.1857
284.4819	0.1869
284.695	0.1901
284.908	0.184
285.1211	0.1869
285.3341	0.1791
285.5471	0.1887
285.7601	0.1924
285.9731	0.1828
286.1861	0.1854
286.3991	0.1877
286.612	0.186
286.825	0.1914
287.0379	0.178
287.2508	0.1825
287.4637	0.1845
287.6766	0.1833
287.8895	0.1853
288.1024	0.1862
288.3152	0.1904
288.5281	0.179
288.7409	0.1913
288.9538	0.1875
289.1666	0.19
289.3794	0.1875
289.5922	0.1854
289.8049	0.1884
290.0177	0.193
290.2304	0.1835
290.4432	0.192
290.6559	0.1866
290.8686	0.187
291.0813	0.1891
291.294	0.188
291.5067	0.1838
291.7194	0.1797
291.932	0.1818
292.1447	0.1855
292.3573	0.185
292.5699	0.1907
292.7825	0.185
292.9951	0.1845
293.2077	0.1877
293.4203	0.1884
293.6328	0.1882
293.8454	0.1862
294.0579	0.1867
294.2704	0.1903
294.4829	0.1837
294.6954	0.1822
294.9079	0.1793
295.1204	0.1846
295.3328	0.1913
295.5453	0.1863
295.7577	0.1881
295.9701	0.1815
296.1825	0.1846
296.3949	0.181
296.6073	0.1812
296.8197	0.1845
297.0321	0.1874
297.2444	0.1842
297.4567	0.1795
297.6691	0.1849
297.8814	0.1771
298.0937	0.1875
298.306	0.1926
298.5182	0.1905
298.7305	0.1869
298.9428	0.1855
299.155	0.1787
299.3672	0.1795
299.5794	0.1916
299.7916	0.185
300.0038	0.186
300.216	0.181
300.4282	0.1873
300.6403	0.1881
300.8525	0.1844
301.0646	0.1852
301.2767	0.1868
301.4888	0.1893
301.7009	0.1881
301.913	0.1918
302.125	0.1915
302.3371	0.1887
302.5491	0.1871
302.7612	0.195
302.9732	0.1896
303.1852	0.1915
303.3972	0.184
303.6092	0.1841
303.8211	0.1899
304.0331	0.188
304.245	0.1871
304.457	0.1855
304.6689	0.1802
304.8808	0.1812
305.0927	0.1862
305.3046	0.1829
305.5164	0.1842
305.7283	0.1761
305.9401	0.1751
306.152	0.1785
306.3638	0.1816
306.5756	0.1772
306.7874	0.1748
306.9992	0.172
307.2109	0.1691
307.4227	0.1677
307.6344	0.1736
307.8462	0.1682
308.0579	0.173
308.2696	0.1656
308.4813	0.166
308.693	0.161
308.9046	0.1614
309.1163	0.161
309.328	0.1624
309.5396	0.1555
309.7512	0.1577
309.9628	0.1566
310.1744	0.1463
310.386	0.1483
310.5976	0.1497
310.8091	0.1477
311.0207	0.1493
311.2322	0.1478
311.4437	0.144
311.6552	0.1436
311.8667	0.1493
312.0782	0.1456
312.2897	0.1437
312.5012	0.1412
312.7126	0.14
312.924	0.1459
313.1355	0.1391
313.3469	0.1419
313.5583	0.1366
313.7696	0.1382
313.981	0.1434
314.1924	0.1366
314.4037	0.1361
314.6151	0.1332
314.8264	0.143
315.0377	0.1344
315.249	0.1328
315.4603	0.1293
315.6716	0.1368
315.8828	0.1321
316.0941	0.1417
316.3053	0.1308
316.5165	0.1335
316.7277	0.1296
316.9389	0.1384
317.1501	0.1341
317.3613	0.1377
317.5724	0.1293
317.7836	0.1262
317.9947	0.1273
318.2058	0.1328
318.417	0.1265
318.6281	0.1278
318.8391	0.1362
319.0502	0.1321
319.2613	0.1278
319.4723	0.1337
319.6834	0.1348
319.8944	0.1282
320.1054	0.1332
320.3164	0.125
320.5274	0.1237
320.7383	0.134
320.9493	0.1281
321.1602	0.1336
321.3712	0.1332
321.5821	0.1271
321.793	0.1371
322.0039	0.1321
322.2148	0.1308
322.4257	0.1261
322.6365	0.1317
322.8474	0.1304
323.0582	0.1292
323.269	0.1296
323.4798	0.1304
323.6906	0.1295
323.9014	0.1294
324.1122	0.1313
324.3229	0.1367
324.5337	0.1347
324.7444	0.1326
324.9551	0.1379
325.1658	0.1361
325.3765	0.1334
325.5872	0.1365
325.7979	0.1345
326.0085	0.134
326.2192	0.1339
326.4298	0.1355
326.6404	0.1419
326.851	0.1361
327.0616	0.1347
327.2722	0.1377
327.4828	0.1399
327.6933	0.1427
327.9039	0.1354
328.1144	0.1365
328.3249	0.1389
328.5354	0.1465
328.7459	0.1413
328.9564	0.1439
329.1669	0.1419
329.3773	0.1397
329.5878	0.1388
329.7982	0.1416
330.0086	0.15
330.219	0.1434
330.4294	0.1467
330.6398	0.1453
330.8502	0.1524
331.0605	0.1503
331.2708	0.1414
331.4812	0.1428
331.6915	0.1492
331.9018	0.1426
332.1121	0.1491
332.3224	0.1429
332.5326	0.1451
332.7429	0.1413
332.9531	0.1509
333.1633	0.1424
333.3735	0.1466
333.5837	0.1447
333.7939	0.1451
334.0041	0.1454
334.2143	0.1453
334.4244	0.152
334.6346	0.1441
334.8447	0.146
335.0548	0.1471
335.2649	0.1541
335.475	0.1543
335.685	0.1443
335.8951	0.143
336.1051	0.1474
336.3152	0.1502
336.5252	0.1454
336.7352	0.1439
336.9452	0.1396
337.1552	0.147
337.3652	0.1466
337.5751	0.1412
337.7851	0.1496
337.995	0.1425
338.2049	0.1457
338.4148	0.1445
338.6247	0.1496
338.8346	0.1467
339.0445	0.1433
339.2543	0.1473
339.4642	0.1473
339.674	0.147
339.8838	0.143
340.0936	0.1504
340.3034	0.1499
340.5132	0.1406
340.7229	0.1518
340.9327	0.1537
341.1424	0.1447
341.3522	0.1427
341.5619	0.1572
341.7716	0.1532
341.9813	0.1528
342.1909	0.155
342.4006	0.1574
342.6102	0.1565
342.8199	0.1522
343.0295	0.1532
343.2391	0.1519
343.4487	0.1596
343.6583	0.1728
343.8679	0.1493
344.0774	0.1595
344.287	0.1619
344.4965	0.1664
344.706	0.1617
344.9155	0.1566
345.125	0.1636
345.3345	0.1654
345.544	0.1665
345.7534	0.1697
345.9629	0.1696
346.1723	0.1764
346.3817	0.1716
346.5911	0.1722
346.8005	0.1703
347.0099	0.173
347.2193	0.1727
347.4286	0.1781
347.638	0.1776
347.8473	0.1761
348.0566	0.1855
348.2659	0.1752
348.4752	0.1843
348.6845	0.1782
348.8937	0.1769
349.103	0.1774
349.3122	0.1836
349.5214	0.1822
349.7306	0.1865
349.9398	0.1771
350.149	0.1716
350.3582	0.1787
350.5674	0.1843
350.7765	0.1831
350.9856	0.1801
351.1948	0.1779
351.4039	0.1824
351.613	0.1806
351.822	0.1891
352.0311	0.1789
352.2402	0.1824
352.4492	0.1854
352.6582	0.1811
352.8672	0.1783
353.0762	0.1782
353.2852	0.1863
353.4942	0.1873
353.7032	0.1835
353.9121	0.1892
354.1211	0.191
354.33	0.1844
354.5389	0.18
354.7478	0.1835
354.9567	0.18
355.1655	0.1859
355.3744	0.1776
355.5833	0.1799
355.7921	0.1891
356.0009	0.1844
356.2097	0.1777
356.4185	0.1897
356.6273	0.1834
356.8361	0.1862
357.0448	0.1877
357.2536	0.1845
357.4623	0.1861
357.671	0.1921
357.8797	0.1882
358.0884	0.1807
358.2971	0.1846
358.5057	0.1955
358.7144	0.1905
358.923	0.1925
359.1316	0.1952
359.3402	0.1935
359.5488	0.1896
359.7574	0.1909
359.966	0.1929
360.1746	0.1875
360.3831	0.1981
360.5916	0.2026
360.8002	0.1956
361.0087	0.1948
361.2172	0.2011
361.4256	0.1971
361.6341	0.2035
361.8426	0.1986
362.051	0.202
362.2594	0.1948
362.4678	0.2109
362.6762	0.2046
362.8846	0.2012
363.093	0.2029
363.3014	0.2035
363.5097	0.209
363.718	0.2108
363.9264	0.2058
364.1347	0.2113
364.343	0.2035
364.5513	0.2105
364.7595	0.2157
364.9678	0.2165
365.176	0.215
365.3842	0.2146
365.5925	0.2088
365.8007	0.2202
366.0089	0.2257
366.217	0.2207
366.4252	0.2172
366.6333	0.2185
366.8415	0.2265
367.0496	0.2179
367.2577	0.2177
367.4658	0.2172
367.6739	0.2153
367.882	0.2299
368.09	0.2227
368.2981	0.2309
368.5061	0.2253
368.7141	0.2235
368.9221	0.2287
369.1301	0.232
369.3381	0.239
369.5461	0.2327
369.754	0.2348
369.962	0.2248
370.1699	0.2403
370.3778	0.2477
370.5857	0.2345
370.7936	0.2357
371.0015	0.238
371.2093	0.2367
371.4172	0.2341
371.625	0.2325
371.8328	0.2404
372.0406	0.2474
372.2484	0.2363
372.4562	0.2366
372.664	0.2418
372.8717	0.244
373.0795	0.2455
373.2872	0.2448
373.4949	0.2422
373.7026	0.2393
373.9103	0.2386
374.118	0.2485
374.3256	0.2439
374.5333	0.2431
374.7409	0.2507
374.9485	0.2433
375.1561	0.2544
375.3637	0.2441
375.5713	0.2456
375.7789	0.247
375.9864	0.2481
376.194	0.2536
376.4015	0.2419
376.609	0.2542
376.8165	0.2566
377.024	0.2515
377.2315	0.2521
377.4389	0.249
377.6464	0.2549
377.8538	0.2559
378.0612	0.2606
378.2686	0.2535
378.476	0.2597
378.6834	0.262
378.8908	0.2674
379.0981	0.256
379.3055	0.2698
379.5128	0.2583
379.7201	0.2637
379.9274	0.2702
380.1347	0.2654
380.342	0.2683
380.5492	0.2633
380.7565	0.268
380.9637	0.2672
381.1709	0.2621
381.3781	0.2733
381.5853	0.2698
381.7925	0.2677
381.9997	0.2734
382.2068	0.2754
382.4139	0.2676
382.6211	0.2676
382.8282	0.2747
383.0353	0.2769
383.2424	0.2626
383.4494	0.2712
383.6565	0.2725
383.8635	0.2655
384.0706	0.2794
384.2776	0.2779
384.4846	0.2792
384.6916	0.2726
384.8986	0.2802
385.1055	0.2766
385.3125	0.2843
385.5194	0.2819
385.7263	0.2667
385.9333	0.2739
386.1402	0.282
386.347	0.2791
386.5539	0.2767
386.7608	0.2778
386.9676	0.2664
387.1744	0.2783
387.3813	0.273
387.5881	0.2761
387.7948	0.2805
388.0016	0.2826
388.2084	0.2805
388.4151	0.2763
388.6219	0.2674
388.8286	0.2649
389.0353	0.2812
389.242	0.2744
389.4487	0.2636
389.6553	0.2638
389.862	0.2656
390.0686	0.271
390.2753	0.2692
390.4819	0.2712
390.6885	0.2678
390.8951	0.2632
391.1016	0.2687
391.3082	0.2589
391.5147	0.2641
391.7213	0.2604
391.9278	0.2587
392.1343	0.2646
392.3408	0.2616
392.5473	0.2614
392.7537	0.2581
392.9602	0.2519
393.1666	0.254
393.373	0.2556
393.5794	0.2561
393.7858	0.2549
393.9922	0.2563
394.1986	0.2462
394.4049	0.2487
394.6113	0.247
394.8176	0.2518
395.0239	0.2407
395.2302	0.2535
395.4365	0.2488
395.6428	0.2442
395.8491	0.2445
396.0553	0.2482
396.2615	0.2435
396.4678	0.2485
396.674	0.2379
396.8802	0.2368
397.0863	0.2322
397.2925	0.2355
397.4987	0.2357
397.7048	0.2381
397.9109	0.2334
398.117	0.2417
398.3231	0.2312
398.5292	0.2283
398.7353	0.2333
398.9413	0.2277
399.1474	0.2288
399.3534	0.2281
399.5594	0.2421
399.7654	0.2322
399.9714	0.2404
400.1774	0.2284
400.3833	0.2319
400.5893	0.2312
400.7952	0.2427
401.0011	0.2334
401.207	0.2348
401.4129	0.2362
401.6188	0.2314
401.8247	0.2388
402.0305	0.2264
402.2364	0.2364
402.4422	0.2356
402.648	0.2431
402.8538	0.225
403.0596	0.2325
403.2654	0.2364
403.4711	0.2232
403.6768	0.2322
403.8826	0.2296
404.0883	0.224
404.294	0.233
404.4997	0.2275
404.7054	0.2387
404.911	0.226
405.1167	0.2256
405.3223	0.2163
405.5279	0.2265
405.7335	0.228
405.9391	0.2317
406.1447	0.2321
406.3502	0.2312
406.5558	0.2311
406.7613	0.2256
406.9668	0.2317
407.1724	0.2306
407.3778	0.2361
407.5833	0.2246
407.7888	0.2266
407.9942	0.2213
408.1997	0.232
408.4051	0.2338
408.6105	0.2349
408.8159	0.2244
409.0213	0.2426
409.2267	0.2359
409.432	0.2319
409.6374	0.2277
409.8427	0.2322
410.048	0.2296
410.2533	0.2312
410.4586	0.2177
410.6639	0.24
410.8691	0.2108
411.0744	0.2381
411.2796	0.2298
411.4848	0.2278
411.69	0.223
411.8952	0.2336
412.1004	0.2262
412.3056	0.2301
412.5107	0.2327
412.7158	0.2365
412.921	0.2307
413.1261	0.2191
413.3312	0.2354
413.5362	0.2296
413.7413	0.2323
413.9464	0.2219
414.1514	0.2258
414.3564	0.2219
414.5614	0.2258
414.7664	0.2202
414.9714	0.2164
415.1764	0.2292
415.3813	0.2247
415.5863	0.2333
415.7912	0.224
415.9961	0.2193
416.201	0.2309
416.4059	0.2224
416.6108	0.2273
416.8156	0.217
417.0205	0.2304
417.2253	0.2149
417.4301	0.2227
417.6349	0.2247
417.8397	0.2217
418.0445	0.217
418.2492	0.2235
418.454	0.2278
418.6587	0.2209
418.8634	0.2209
419.0681	0.2271
419.2728	0.2185
419.4775	0.2283
419.6822	0.2231
419.8868	0.2162
420.0915	0.212
420.2961	0.2119
420.5007	0.2165
420.7053	0.2066
420.9099	0.218
421.1144	0.2147
421.319	0.2173
421.5235	0.2041
421.728	0.2153
421.9325	0.2032
422.137	0.2074
422.3415	0.2078
422.546	0.2069
422.7504	0.1911
422.9549	0.2107
423.1593	0.1963
423.3637	0.1957
423.5681	0.2102
423.7725	0.2003
423.9769	0.2108
424.1812	0.1925
424.3856	0.2005
424.5899	0.1958
424.7942	0.1906
424.9985	0.1948
425.2028	0.2085
425.4071	0.2045
425.6113	0.195
425.8156	0.1885
426.0198	0.1987
426.224	0.1923
426.4282	0.1823
426.6324	0.1974
426.8366	0.1764
427.0407	0.19
427.2449	0.1875
427.449	0.1923
427.6531	0.1912
427.8572	0.1892
428.0613	0.1846
428.2654	0.1983
428.4694	0.1777
428.6735	0.1744
428.8775	0.1781
429.0815	0.172
429.2855	0.185
429.4895	0.1773
429.6935	0.1776
429.8975	0.169
430.1014	0.1771
430.3053	0.1786
430.5093	0.1544
430.7132	0.1689
430.9171	0.1583
431.1209	0.1707
431.3248	0.157
431.5286	0.1559
431.7325	0.1665
431.9363	0.1566
432.1401	0.153
432.3439	0.1641
432.5477	0.1527
432.7514	0.1486
432.9552	0.1507
433.1589	0.1438
433.3627	0.1514
433.5664	0.1447
433.7701	0.1437
433.9737	0.147
434.1774	0.1515
434.3811	0.1453
434.5847	0.1426
434.7883	0.1384
434.9919	0.1389
435.1955	0.1379
435.3991	0.144
435.6027	0.1326
435.8062	0.1427
436.0098	0.1279
436.2133	0.1281
436.4168	0.124
436.6203	0.1162
436.8238	0.1237
437.0272	0.1235
437.2307	0.1258
437.4341	0.1273
437.6375	0.1215
437.841	0.1083
438.0443	0.1239
438.2477	0.1036
438.4511	0.1155
438.6545	0.1125
438.8578	0.1018
439.0611	0.1177
439.2644	0.1023
439.4677	0.1078
439.671	0.0917
439.8743	0.1017
440.0775	0.1051
440.2808	0.1014
440.484	0.0954
440.6872	0.1047
440.8904	0.0862
441.0936	0.0954
441.2967	0.0785
441.4999	0.0855
441.703	0.087
441.9062	0.0927
442.1093	0.0931
442.3124	0.0839
442.5155	0.0883
442.7185	0.0779
442.9216	0.0815
443.1246	0.0819
443.3276	0.081
443.5307	0.069
443.7337	0.077
443.9366	0.0813
444.1396	0.068
444.3426	0.0739
444.5455	0.0693
444.7484	0.0678
444.9513	0.072
445.1542	0.0685
445.3571	0.0721
445.56	0.0634
445.7628	0.0698
445.9657	0.0678
446.1685	0.0626
446.3713	0.0594
446.5741	0.0705
446.7769	0.0607
446.9797	0.06
447.1824	0.0559
447.3852	0.0519
447.5879	0.0552
447.7906	0.0408
447.9933	0.0544
448.196	0.049
448.3986	0.0492
448.6013	0.0399
448.8039	0.0538
449.0066	0.061
449.2092	0.0528
449.4118	0.0508
449.6143	0.0525
449.8169	0.0466
450.0195	0.0466
450.222	0.0467
450.4245	0.0452
450.627	0.0455
450.8295	0.0396
451.032	0.0417
451.2345	0.0356
451.4369	0.0404
451.6394	0.0479
451.8418	0.04
452.0442	0.0376
452.2466	0.0299
452.449	0.0384
452.6513	0.0361
452.8537	0.0321
453.056	0.0392
453.2583	0.036
453.4607	0.0346
453.663	0.0333
453.8652	0.0282
454.0675	0.0384
454.2697	0.0266
454.472	0.0399
454.6742	0.0359
454.8764	0.0273
455.0786	0.0266
455.2808	0.0247
455.4829	0.0239
455.6851	0.0275
455.8872	0.016
456.0893	0.0219
456.2915	0.0145
456.4935	0.0258
456.6956	0.0209
456.8977	0.0189
457.0997	0.0271
457.3018	0.005
457.5038	0.0299
457.7058	0.0233
457.9078	0.017
458.1098	0.026
458.3117	0.0297
458.5137	0.0092
458.7156	0.0192
458.9175	0.021
459.1194	0.0221
459.3213	0.0212
459.5232	0.0215
459.725	0.0217
459.9269	0.0244
460.1287	0.0189
460.3305	0.0264
460.5323	0.017
460.7341	0.009
460.9359	0.018
461.1376	0.0206
461.3394	0.0131
461.5411	0.0259
461.7428	0.0215
461.9445	0.0159
462.1462	0.0212
462.3479	0.0098
462.5495	0.0205
462.7512	0.0277
462.9528	0.0116
463.1544	0.0128
463.356	0.0076
463.5576	0.0281
463.7592	0.0069
463.9607	0.0107
464.1623	0.0103
464.3638	0.0104
464.5653	0.0165
464.7668	0.0236
464.9683	0.018
465.1697	0.0131
465.3712	0.0034
465.5726	0.0152
465.7741	0.0173
465.9755	0.0174
466.1769	0.0069
466.3782	0.0024
466.5796	0.0148
466.7809	0.0166
466.9823	0.0087
467.1836	0.0067
467.3849	0.0181
467.5862	0.0076
467.7875	0.0016
467.9887	0.009
468.19	0.0102
468.3912	0.0204
468.5924	0.012
468.7936	0.0154
468.9948	0.0075
469.196	0.0075
469.3972	-0.0003
469.5983	0.0112
469.7994	0.0115
470.0006	0.0053
470.2017	0.0143
470.4027	0.0257
470.6038	0.0048
470.8049	0.0128
471.0059	0.0137
471.2069	0.0169
471.408	0.0161
471.6089	0.013
471.8099	0.0063
472.0109	0.0088
472.2119	0.0194
472.4128	0.007
472.6137	0.0111
472.8146	0.0063
473.0155	0.009
473.2164	0.0126
473.4173	0.0047
473.6181	0.0002
473.819	0.0093
474.0198	0.0007
474.2206	-0.0044
474.4214	0.0098
474.6222	-0.0017
474.8229	0.0074
475.0237	0.0107
475.2244	0.011
475.4251	0.0064
475.6258	0.0077
475.8265	0.0137
476.0272	0.0028
476.2278	0.0132
476.4285	0.0149
476.6291	0.0164
476.8297	0.0151
477.0303	0.0021
477.2309	0.0117
477.4315	0.0087
477.632	0.0051
477.8326	0.0087
478.0331	0.0097
478.2336	-0.0043
478.4341	0.0002
478.6346	0.0016
478.8351	0.0038
479.0355	0.0069
479.236	0.0121
479.4364	0.0097
479.6368	0.0074
479.8372	0.0072
480.0376	0.0042
480.2379	0.0074
480.4383	0.0158
480.6386	0.0005
480.8389	0.0048
481.0392	0.0071
481.2395	0.0142
481.4398	0.0084
481.6401	0.0082
481.8403	-0.0001
482.0405	0.0051
482.2408	0.0054
482.441	0.0114
482.6411	0.0081
482.8413	-0.0007
483.0415	0.0145
483.2416	0.0059
483.4417	0.0019
483.6419	-0.0012
483.8419	0.0007
484.042	0.0042
484.2421	0.0029
484.4422	0.0117
484.6422	0.0053
484.8422	0.0114
485.0422	0.0056
485.2422	0.0023
485.4422	0.0057
485.6422	0.0047
485.8421	0.0051
486.042	0.0116
486.242	0.0012
486.4419	0.0017
486.6417	0.0011
486.8416	0.0026
487.0415	0.0039
487.2413	-0.0011
487.4411	0.01
487.641	0.0061
487.8408	0.0079
488.0405	0.0133
488.2403	0.0081
488.4401	0.0079
488.6398	0.0081
488.8395	0.0084
489.0392	0.0071
489.2389	0.0091
489.4386	0.0034
489.6383	0.0004
489.8379	0.0035
490.0376	0.0084
490.2372	0.006
490.4368	-0.003
490.6364	0.0018
490.836	0.0048
491.0355	0.0028
491.2351	0.006
491.4346	0.0021
491.6341	-0.0029
491.8336	0.0057
492.0331	0.0044
492.2326	0.0105
492.432	0.0028
492.6315	0.0087
492.8309	-0.0004
493.0303	0.004
493.2297	0.0109
493.4291	0.0068
493.6284	0.013
493.8278	0.0081
494.0271	0.0077
494.2264	0.0065
494.4257	0.0122
494.625	0.0042
494.8243	-0.0005
495.0236	0.0051
495.2228	0.0086
495.422	0.0066
495.6213	0.0049
495.8205	0.0102
496.0196	0.0083
496.2188	0.0061
496.418	0.0085
496.6171	-0.0002
496.8162	0.0068
497.0153	0.0088
497.2144	0.007
497.4135	-0.0019
497.6126	0.0029
497.8116	-0.0032
498.0107	0.0045
498.2097	0.004
498.4087	0.0048
498.6077	-0.0037
498.8067	0.0093
499.0056	0.0041
499.2046	0.0097
499.4035	0.0046
499.6024	0.0049
499.8013	0.0213
500.0002	0.0087
500.199	0.0106
500.3979	0.0039
500.5967	0.0034
500.7956	0.0077
500.9944	0.0039
501.1932	0.0089
501.3919	0.0167
501.5907	0.0131
501.7895	0.0052
501.9882	0.0068
502.1869	0.0069
502.3856	0.0008
502.5843	0.0002
502.783	0
502.9816	0.0133
503.1803	0.0029
503.3789	0.0129
503.5775	0.0062
503.7761	0.0002
503.9747	0.0089
504.1732	-0
504.3718	0.0111
504.5703	0.0115
504.7689	0.0063
504.9674	0.0074
505.1658	0.0063
505.3643	0.0047
505.5628	0.0124
505.7612	0.0052
505.9597	0.0002
506.1581	0.007
506.3565	0.0126
506.5549	0.0054
506.7532	0.0016
506.9516	0.0047
507.1499	0.0059
507.3482	0.0062
507.5465	0.0021
507.7448	0.0113
507.9431	0.0076
508.1414	0.004
508.3396	0.0118
508.5379	-0.0022
508.7361	0.0036
508.9343	0.0078
509.1325	0.0161
509.3306	0.0078
509.5288	-0.0054
509.7269	0.0103
509.9251	0.013
510.1232	0.011
510.3213	0.0058
510.5193	-0.0015
510.7174	0.0016
510.9154	0.0146
511.1135	0.0002
511.3115	0.0037
511.5095	0.0023
511.7075	0.012
511.9055	0.0114
512.1034	-0.0031
512.3014	0.0026
512.4993	0.0029
512.6972	-0.0008
512.8951	0.011
513.093	0.0096
513.2908	0.0165
513.4887	0.0049
513.6865	0.0002
513.8844	0.0148
514.0822	0.0098
514.2799	-0.0004
514.4777	0.0015
514.6755	0.0021
514.8732	0.0054
515.0709	0.0102
515.2687	0.0072
515.4664	0.0163
515.664	0.0156
515.8617	0.0214
516.0594	0.0066
516.257	0.0003
516.4546	0.0203
516.6522	0.011
516.8498	0.0052
517.0474	0.0082
517.2449	0.0007
517.4425	0.0045
517.64	0.0102
517.8375	0.0086
518.035	0.0067
518.2325	0.0067
518.43	0.0067
518.6274	0.0081
518.8249	0.0027
519.0223	0.0135
519.2197	-0.0016
519.4171	0.0005
519.6145	0.006
519.8118	0.0001
520.0092	-0.0014
520.2065	0.0158
520.4038	0.0083
520.6011	0.0174
520.7984	0.0038
520.9956	0.0087
521.1929	-0.0016
521.3901	0.0087
521.5874	0.0137
521.7846	0.0002
521.9818	0.0069
522.1789	0.0029
522.3761	0.0122
522.5732	0.0144
522.7704	-0.0009
522.9675	0.0002
523.1646	-0.0007
523.3617	0.0104
523.5587	0.004
523.7558	0.0133
523.9528	0.0166
524.1498	0.0021
524.3468	0.0058
524.5438	0.0127
524.7408	0.0085
524.9378	0.0051
525.1347	0.0068
525.3316	0.0056
525.5285	-0.0079
525.7254	0.0043
525.9223	0.0175
526.1192	0.0059
526.316	0.0046
526.5129	0.0047
526.7097	0.004
526.9065	0.0141
527.1033	-0.0005
527.3	0.0079
527.4968	0.0182
527.6935	-0.002
527.8903	0.0073
528.087	0.0044
528.2837	0.0187
528.4804	0.0024
528.677	0.0063
528.8737	0.01
529.0703	0.0086
529.2669	0.011
529.4635	0.0072
529.6601	-0.01
529.8567	0.0027
530.0532	0.0008
530.2498	-0.0027
530.4463	-0.0065
530.6428	0.0121
530.8393	0.006
531.0358	0.0035
531.2322	0.005
531.4287	0.0092
531.6251	-0.0083
531.8215	0.0047
532.0179	0.0163
532.2143	0.0076
532.4107	0.0056
532.607	0.0059
532.8034	0.0046
532.9997	0.0054
533.196	0.0021
533.3923	0.0136
533.5886	0.0122
533.7848	0.0081
533.9811	0.0066
534.1773	0.0054
534.3735	0.0075
534.5697	0.0045
534.7659	0.0107
534.9621	0.0073
535.1582	0.0197
535.3544	0.0142
535.5505	0.0111
535.7466	0.0138
535.9427	0.0072
536.1387	0.007
536.3348	0.0136
536.5308	-0.0046
536.7269	0.0004
536.9229	0.0077
537.1189	0.0154
537.3148	0.0126
537.5108	0.0079
537.7068	0.0116
537.9027	-0.0126
538.0986	0.0084
538.2945	0.0061
538.4904	-0.0034
538.6863	0.0034
538.8821	0.012
539.078	0.0153
539.2738	0.0079
539.4696	0.0029
539.6654	0.0032
539.8611	0.0111
540.0569	0.0056
540.2526	0.0154
540.4484	-0.0048
540.6441	-0.0009
540.8398	0.013
541.0355	0.0046
541.2311	0.0099
541.4268	0.0085
541.6224	0.0211
541.818	0.0076
542.0136	0.0057
542.2092	0.011
542.4048	0.0005
542.6003	0.0028
542.7959	0.0081
542.9914	0.007
543.1869	0.0144
543.3824	0.0043
543.5779	0.0145
543.7734	0.0143
543.9688	0.0085
544.1642	0.0053
544.3596	-0.0041
544.555	0.0058
544.7504	0.0181
544.9458	0.0087
545.1411	0.001
545.3365	0.0004
545.5318	0.0127
545.7271	0.0126
545.9224	-0.0036
546.1177	0.0043
546.3129	0.0105
546.5081	0.007
546.7034	0.0017
546.8986	0.013
547.0938	0.0104
547.289	0.012
547.4841	0.009
547.6793	-0.001
547.8744	0.0123
548.0695	0.0079
548.2646	0.0095
548.4597	0.009
548.6548	0.0046
548.8498	0.0096
549.0448	-0.0017
549.2399	0.0042
549.4349	0.0039
549.6298	0.0114
549.8248	0.004
550.0198	0.0136
550.2147	0.0179
550.4096	0.0048
550.6045	0.0014
550.7994	-0.0036
550.9943	0.0135
551.1892	-0.0071
551.384	0.016
551.5788	0.0063
551.7737	0.0139
551.9685	0.009
552.1632	-0.0015
552.358	0.0034
552.5528	0.0134
552.7475	0.0045
552.9422	0.0212
553.1369	0.0118
553.3316	0.0068
553.5263	0.0124
553.7209	0.0033
553.9156	0.0087
554.1102	-0.0063
554.3048	0.0082
554.4994	-0.0039
554.694	0.0029
554.8885	0.0107
555.0831	0.0043
555.2776	0.0089
555.4721	0.0126
555.6666	0.0121
555.8611	0.0099
556.0555	0.0027
556.25	0.005
556.4444	0.0006
556.6388	0.0065
556.8332	0.0009
557.0276	0.0096
557.222	0.0003
557.4163	0.0064
557.6107	0.0017
557.805	0.0091
557.9993	-0.0025
558.1936	-0.0127
558.3879	0.0109
558.5821	0.004
558.7764	-0.0002
558.9706	0.0108
559.1648	0.0076
559.359	-0.001
559.5532	0.0047
559.7473	0.0006
559.9415	0.0009
560.1356	0.0135
560.3297	-0.004
560.5238	0.0084
560.7179	-0.0001
560.9119	0.0097
561.106	-0.0061
561.3	0.0082
561.494	-0.0072
561.688	0.0017
561.882	0.0008
562.076	0.0075
562.2699	0.0092
562.4639	0.0182
562.6578	0.006
562.8517	-0.0005
563.0456	0.0053
563.2395	0.0095
563.4333	0.007
563.6272	0.0065
563.821	-0.0036
564.0148	0.0097
564.2086	0.0075
564.4024	0.0067
564.5961	-0.0037
564.7899	0.0193
564.9836	0.0016
565.1773	0.0104
565.371	-0.0005
565.5647	0.0106
565.7584	0.0111
565.952	0.0022
566.1456	0.0026
566.3393	0.0056
566.5329	0.0055
566.7264	0.0088
566.92	-0.001
567.1136	-0.0015
567.3071	-0.0033
567.5006	0.0121
567.6941	0.0096
567.8876	0.0023
568.0811	0.0177
568.2745	-0.0064
568.468	0.0079
568.6614	0.0086
568.8548	0.0031
569.0482	0.006
569.2416	0.0153
569.4349	0.0021
569.6283	-0.0026
569.8216	0.0062
570.0149	0.0023
570.2082	0.0094
570.4015	0.0046
570.5947	0.0071
570.788	0.0074
570.9812	-0.0009
571.1744	0.0038
571.3676	0.0061
571.5608	0.0035
571.754	0.0126
571.9471	0.0106
572.1402	0.0057
572.3333	0.005
572.5264	0.0035
572.7195	0.0003
572.9126	-0.0003
573.1057	0.0068
573.2987	0.0035
573.4917	0.0046
573.6847	0.004
573.8777	0.0059
574.0707	0.0093
574.2636	0.0046
574.4566	0.0032
574.6495	0.0093
574.8424	0.0103
575.0353	0.0045
575.2281	0.0087
575.421	0.0006
575.6138	0.0062
575.8067	0.0026
575.9995	0.0059
576.1923	0.0067
576.385	0.0081
576.5778	0.0088
576.7706	0.0067
576.9633	0.0086
577.156	-0.0012
577.3487	0.0044
577.5414	0.0026
577.734	0.0034
577.9267	0.004
578.1193	0.0086
578.3119	0.0002
578.5045	0.005
578.6971	0.0025
578.8897	0.0026
579.0822	0.0095
579.2747	0.0051
579.4673	0.0065
579.6598	0.0051
579.8522	0.0014
580.0447	0.005
580.2372	0.0051
580.4296	0.0098
580.622	0.0038
580.8144	0.0044
581.0068	0.0066
581.1992	0.0071
581.3915	0.0001
581.5839	0.0074
581.7762	0.0042
581.9685	0.0027
582.1608	0.0037
582.353	0.0043
582.5453	0.0073
582.7375	0.0086
582.9298	-0.0021
583.122	0.0019
583.3142	0.0063
583.5063	-0.0011
583.6985	0.0027
583.8906	-0.0006
584.0827	0.0029
584.2749	0.0014
584.4669	0.0057
584.659	0.0082
584.8511	0.0096
585.0431	0.0071
585.2352	0.0046
585.4272	0.0056
585.6192	0.0052
585.8111	0.0035
586.0031	0.0046
586.195	0.0029
586.387	0.0014
586.5789	0.0063
586.7708	0.0077
586.9627	0.0062
587.1545	0.0013
587.3464	0.0067
587.5382	0.0058
587.73	0.0066
587.9218	0.0035
588.1136	0.0015
588.3053	0.0084
588.4971	0.0018
588.6888	-0.0018
588.8805	0.0032
589.0722	0.0131
589.2639	0.0046
589.4556	0.0089
589.6472	0.0124
589.8389	0.0044
590.0305	-0.0018
590.2221	0.0096
590.4137	0.0038
590.6052	0.0041
590.7968	0.0007
590.9883	0.0048
591.1798	0.0014
591.3713	0.0072
591.5628	0.0047
591.7543	0.005
591.9458	0.0048
592.1372	0.0073
592.3286	0.0044
592.52	0.0069
592.7114	0.0026
592.9028	0.0152
593.0941	0.0032
593.2855	0.0034
593.4768	0.0074
593.6681	0.0065
593.8594	0.0082
594.0506	-0.001
594.2419	0.0011
594.4331	0.005
594.6244	-0.0005
594.8156	0.0089
595.0067	-0.0043
595.1979	0.0035
595.3891	0.0045
595.5802	0.0096
595.7713	0.0074
595.9624	0.0069
596.1535	0.0049
596.3446	-0.001
596.5357	0.0083
596.7267	0.002
596.9177	0.0001
597.1087	-0.0002
597.2997	0.003
597.4907	0.0004
597.6817	0.0011
597.8726	0.0097
598.0635	0.0026
598.2544	0.0116
598.4453	0.0058
598.6362	0.0047
598.827	0.0038
599.0179	0.0102
599.2087	0.0052
599.3995	0.0031
599.5903	0.0038
599.7811	0.0085
599.9718	0.0008
600.1626	0.0027
600.3533	-0.0001
600.544	0.0014
600.7347	0.0099
600.9254	0.005
601.116	0.0014
601.3067	0.005
601.4973	0.0133
601.6879	0.0076
601.8785	0.0083
602.0691	0.0054
602.2596	0.0041
602.4502	0.0028
602.6407	0.0018
602.8312	0.0055
603.0217	0.0046
603.2122	0.0013
603.4027	0.0024
603.5931	0.0066
603.7835	0.005
603.9739	0.0027
604.1643	0.0017
604.3547	0.0106
604.5451	0.0107
604.7354	0.0037
604.9257	0.006
605.116	0.0002
605.3063	0.005
605.4966	0.0016
605.6869	0.0091
605.8771	0.0029
606.0673	0.0051
606.2575	0.0042
606.4477	0.0135
606.6379	0.0051
606.8281	0.0028
607.0182	0.0085
607.2083	0.0058
607.3985	0.0015
607.5885	0.006
607.7786	0.0061
607.9687	0.0054
608.1587	0.0069
608.3488	0.0072
608.5388	0.0013
608.7288	0.0006
608.9187	0.0002
609.1087	0.0112
609.2986	0.0058
609.4886	0.0028
609.6785	0.0051
609.8684	0.0021
610.0582	0.0048
610.2481	0.0017
610.4379	0.0082
610.6278	0.0005
610.8176	0.0035
611.0074	0.0025
611.1971	0.0009
611.3869	0.0055
611.5766	-0.0005
611.7664	0.0084
611.9561	0.006
612.1458	0.0047
612.3354	0.0002
612.5251	0.0006
612.7147	0.0108
612.9044	0.0005
613.094	0.0099
613.2836	-0.0011
613.4731	0.0042
613.6627	0.0091
613.8522	0.0106
614.0417	0.0137
614.2313	0.009
614.4207	0.0109
614.6102	0.0154
614.7997	0.0112
614.9891	0.0036
615.1785	-0.0001
615.3679	0.0063
615.5573	0.0063
615.7467	-0.0002
615.9361	0.0065
616.1254	0.0114
616.3147	0.0045
616.504	0.0093
616.6933	0.0065
616.8826	0.0036
617.0718	0.01
617.2611	0.001
617.4503	0.0002
617.6395	0.0029
617.8287	0.0077
618.0179	0.0119
618.207	0.0052
618.3961	-0.0008
618.5853	0.0079
618.7744	-0.0007
618.9634	0.0147
619.1525	0.0047
619.3416	0.0028
619.5306	-0.0037
619.7196	0.0076
619.9086	0.0072
620.0976	-0.0045
620.2866	-0.0026
620.4755	0.0064
620.6645	0.0222
620.8534	0.0065
621.0423	0.0044
621.2312	0.0005
621.42	0.0095
621.6089	0.0153
621.7977	0.0117
621.9865	0.0009
622.1753	-0.0028
622.3641	-0.0045
622.5529	0.0029
622.7416	0.0048
622.9303	0
623.1191	0.0051
623.3078	0.0109
623.4964	-0.0017
623.6851	0.0072
623.8737	0.0079
624.0624	-0.0085
624.251	0.0003
624.4396	0.0062
624.6282	0.0083
624.8167	0.0059
625.0053	0.0061
625.1938	0.0055
625.3823	0.009
625.5708	-0.0155
625.7593	0.0037
625.9477	0.0138
626.1362	0.0034
626.3246	0.0075
626.513	0.0046
626.7014	0.0088
626.8898	0.016
627.0781	0.0089
627.2665	0.011
627.4548	-0.0038
627.6431	0.0145
627.8314	0.0149
628.0197	0.0173
628.2079	0.0048
628.3962	0.0147
628.5844	-0.0012
628.7726	0.0068
628.9608	0.0127
629.1489	0.0065
629.3371	0.0038
629.5252	0.0099
629.7134	-0.0006
629.9015	0.0043
630.0895	-0.0057
630.2776	0.0167
630.4657	0.0119
630.6537	0.0026
630.8417	-0.0076
631.0297	0.0049
631.2177	0.0094
631.4057	-0.0057
631.5936	0.0002
631.7815	0.0122
631.9695	0.0198
632.1574	0.0153
632.3452	0.0152
632.5331	0.0083
632.7209	-0.003
632.9088	0.0191
633.0966	0.0313
633.2844	0.0103
633.4722	0.0143
633.6599	0.0197
633.8477	-0.001
634.0354	0.0141
634.2231	-0.0222
634.4108	-0.001
634.5985	0.0154
634.7861	0.0016
634.9738	-0.0093
635.1614	0.018
635.349	0.0025
635.5366	0.0063
635.7242	0.0043
635.9117	0.0248
636.0993	0.0136
636.2868	-0.0092
636.4743	0.0137
636.6618	-0.0035
636.8492	0.0123
637.0367	-0.0006
637.2241	0.0114
637.4115	0.0368
637.5989	-0.0008
637.7863	0.0255
637.9737	0.0124
638.161	0.019
638.3484	0.0012
638.5357	0.0054
638.723	0.028
638.9103	-0.016
639.0975	0.0124
639.2848	0.0138
639.472	0.0196
639.6592	-0.0125
639.8464	0.0077
640.0336	0.0136
640.2208	0.0068
640.4079	-0.0149
640.595	0.0075
640.7821	0.015
640.9692	0.0137
641.1563	0.009
641.3434	0.0167
641.5304	0.0301
641.7174	0.0038
641.9044	-0.0001
642.0914	0.0291
642.2784	0.0041
642.4653	-0.0022
642.6523	0.0136
642.8392	0.0045
643.0261	0.0255
643.213	-0.0019
643.3999	0.0282
643.5867	0.0125
643.7735	0.0013
643.9604	0.0309
644.1472	0.0037
644.3339	0.0144
644.5207	0.0064
644.7075	0.0003
644.8942	-0.0027
645.0809	-0.0027
645.2676	-0.0007
645.4543	0.0123
645.6409	0.0145
645.8276	0.0263
646.0142	-0.0069
646.2008	-0.0099
646.3874	0.0211
646.574	0.0024
646.7605	0.0015
646.9471	0.0113
647.1336	-0.0122
647.3201	0.0199
647.5066	0.005
647.6931	0.0135
647.8795	0.0036
648.0659	0.0072
648.2524	0.0241
648.4388	-0.0011
648.6252	0.0182
648.8115	0.0106
648.9979	0.0131
649.1842	0.0067
649.3705	0.0197
649.5568	-0.0082
649.7431	0.0083
649.9294	-0.0024
650.1156	0.0033
650.3018	0.0294
650.488	0.0163
650.6742	0.0224
650.8604	0.0028
651.0466	-0.0007
651.2327	0.0103
651.4188	0.0026
651.6049	0.028
651.791	-0.0109
651.9771	0.0162
652.1632	0.0196
652.3492	-0.0119
652.5352	0.0068
652.7212	0.0086
652.9072	0.006
653.0932	0.0044
653.2791	0.0033
653.465	0.0268
653.651	0.0038
653.8369	0.0112
654.0227	-0.0031
654.2086	-0.0001
654.3944	0.0043
654.5803	0.003
654.7661	0.0073
654.9519	-0
655.1377	0.0001
655.3234	0.0001
655.5092	0.0001
655.6949	0.0001
655.8806	0.0001
656.0663	0.0001
656.2519	0.0001
656.4376	0.0001
656.6232	0.0001
656.8088	0.0001
656.9945	0.0001
657.18	0.0001
657.3656	0.0001
657.5511	0.0001
657.7367	0.0001
657.9222	0.0001
658.1077	0.0001
658.2932	0.0001
658.4786	0.0001
658.6641	0.0001
658.8495	0.0001
659.0349	0.0001
659.2203	0.0001
659.4057	0.0001
659.591	0.1663
659.7764	0.0224
659.9617	0.0145
660.147	0.0125
660.3323	0.002
660.5176	0.0023
660.7028	0.0103
660.888	0.0232
661.0733	0.014
661.2585	-0.0019
661.4436	0.0127
661.6288	0.028
661.8139	-0.0004
661.9991	-0.0133
662.1842	0.0004
662.3693	-0.0029
662.5544	0.0217
662.7394	0.0213
662.9245	0.0067
663.1095	-0.0036
663.2945	-0.0127
663.4795	-0.0168
663.6644	0.0001
663.8494	0.0016
664.0343	0.0253
664.2193	-0.0069
664.4042	0.0113
664.589	0.0082
664.7739	0.0127
664.9587	-0.0164
665.1436	-0.0016
665.3284	-0.0079
665.5132	-0.0249
665.698	0.0207
665.8827	0.0095
666.0675	-0.0058
666.2522	-0.0008
666.4369	-0.008
666.6216	0.0249
666.8063	-0.0175
666.9909	-0.0009
667.1756	-0.0094
667.3602	0.0107
667.5448	-0.0012
667.7294	0.019
667.9139	0.0103
668.0985	0.0111
668.283	0.0239
668.4675	0.0128
668.652	0.0205
668.8365	0.0024
669.0209	-0.0101
669.2054	-0.0034
669.3898	0.011
669.5742	0.0213
669.7586	0.0074
669.943	0.0207
670.1273	0.0106
670.3117	0.022
670.496	-0.0066
670.6803	-0.0002
670.8646	-0.0206
671.0488	0.0273
671.2331	-0.0023
671.4173	0.0054
671.6015	-0.0047
671.7857	0.0094
671.9699	0.0133
672.1541	0.0036
672.3382	-0.0159
672.5223	-0.0003
672.7064	-0.0015
672.8905	-0.0034
673.0746	0.0085
673.2587	0.0142
673.4427	0.0033
673.6267	0.0009
673.8107	0.0171
673.9947	0.0126
674.1787	0.0162
674.3626	0.0145
674.5465	0.0149
674.7304	-0.0118
674.9143	0.0205
675.0982	-0.0021
675.2821	0.0115
675.4659	-0.0048
675.6497	0.015
675.8335	0.0043
676.0173	-0.017
676.2011	0.0246
676.3849	0.0097
676.5686	0.0244
676.7523	0.0044
676.936	-0.0069
677.1197	0.0056
677.3034	0.0211
677.487	0.0026
677.6706	0.0061
677.8542	-0.001
678.0378	0.0077
678.2214	0.0043
678.405	0.0156
678.5885	0.0023
678.772	0.0022
678.9555	0.0136
679.139	0.0256
679.3225	-0.0087
679.5059	0.0018
679.6894	-0.0015
679.8728	0.0042
680.0562	0.0052
680.2395	0.0084
680.4229	0.0048
680.6062	-0.0039
680.7896	-0.0129
680.9729	0.0192
681.1562	-0.0077
681.3394	-0.0084
681.5227	0.0091
681.7059	0.0081
681.8891	0.0147
682.0723	0.009
682.2555	0.0264
682.4387	0.028
682.6218	0.0272
682.805	0.0096
682.9881	0.0207
683.1712	0.0112
683.3542	0.0174
683.5373	-0.0105
683.7203	0.0061
683.9034	-0.0043
684.0864	0.003
684.2694	0.0133
684.4523	0.0163
684.6353	0.0004
684.8182	-0.0057
685.0011	0.0081
685.184	-0.0039
685.3669	0.0268
685.5498	0.0001
685.7326	0.0036
685.9154	-0.0017
686.0982	0.0144
686.281	0.002
686.4638	0.032
686.6465	-0.0048
686.8293	-0.0028
687.012	0.007
687.1947	0.0097
687.3774	0.011
687.56	-0.0067
687.7427	0.0046
687.9253	-0.0089
688.1079	0.0105
688.2905	-0.0053
688.4731	0.0126
688.6556	-0.0002
688.8382	-0.0225
689.0207	0.0046
689.2032	0.0149
689.3857	0.0065
689.5681	0.0073
689.7506	0.0384
689.933	-0.0075
690.1154	0.0234
690.2978	0.002
690.4802	0.0208
690.6626	0.0167
690.8449	0.025
691.0272	0.011
691.2095	-0.0111
691.3918	0.0086
691.5741	0.0149
691.7563	0.0209
691.9386	0.0166
692.1208	0.01
692.303	0.0072
692.4852	0.0104
692.6673	0.0145
692.8495	-0.0237
693.0316	0.0142
693.2137	0.0071
693.3958	-0.0015
693.5778	0.0208
693.7599	0.0001
693.9419	-0.0255
694.1239	-0.007
694.3059	0.0482
694.4879	-0.0015
694.6699	0.0159
694.8518	0.0187
695.0337	0.0083
695.2157	0.0353
695.3975	0.0117
695.5794	-0.0181
695.7613	0.0089
695.9431	-0.0061
696.1249	0.0186
696.3067	0.0038
696.4885	0.0032
696.6703	-0.0157
696.852	-0.0188
697.0337	0.0359
697.2154	0.006
697.3971	0.0126
697.5788	0.0226
697.7605	-0.009
697.9421	0.0143
698.1237	0.0098
698.3053	0.0078
698.4869	-0.0089
698.6685	0.0052
698.85	-0.0035
699.0315	-0.0098
699.213	-0.0081
699.3945	0.0227
699.576	0.0128
699.7575	0.0248
699.9389	-0.0003
700.1203	0.0151
700.3017	0.0256
700.4831	0.002
700.6645	0.0333
700.8458	-0.0069
701.0271	0.0161
701.2084	0.0009
701.3897	0.0274
701.571	-0.0107
701.7523	-0.0026
701.9335	0.0029
702.1147	0.0193
702.2959	0.005
702.4771	0.0134
702.6583	-0.004
702.8394	-0.0264
703.0205	0.0207
703.2016	0.0034
703.3827	-0.0154
703.5638	0.0078
703.7449	0.007
703.9259	-0.0002
704.1069	-0.0108
704.2879	0.0056
704.4689	-0.0055
704.6499	0.0173
704.8308	0.0359
705.0117	0.0194
705.1927	0.0371
705.3735	-0.0037
705.5544	0.0333
705.7353	0.0014
705.9161	-0.0192
706.0969	0.0183
706.2777	0.0242
706.4585	0.0039
706.6393	0.0282
706.82	0.0162
707.0007	0.0014
707.1815	-0.001
707.3621	0.0265
707.5428	0.0275
707.7235	-0.0019
707.9041	0.0003
708.0847	-0.0142
708.2653	0.0231
708.4459	-0.0079
708.6265	-0.0062
708.807	-0.0016
708.9875	-0.0002
709.168	0.0022
709.3485	0.0272
709.529	0.02
709.7095	-0.0128
709.8899	-0.0005
710.0703	0.0303
710.2507	-0.0002
710.4311	-0.0311
710.6115	0.0181
710.7918	0.0328
710.9721	-0.0064
711.1524	-0.0166
711.3327	-0.0084
711.513	-0.0026
711.6932	-0.0221
711.8735	0.0151
712.0537	0.0022
712.2339	-0.011
712.4141	0.0173
712.5942	-0.0093
712.7744	0.0362
712.9545	0.0167
713.1346	0.0214
713.3147	0.0194
713.4947	-0.0127
713.6748	0.0116
713.8548	0.0152
714.0348	0.0158
714.2148	0.0349
714.3948	0.0227
714.5748	0.0107
714.7547	-0.003
714.9346	0.0241
715.1145	0.0275
715.2944	-0.0226
715.4743	-0.007
715.6541	-0.0105
715.834	0.0279
716.0138	0.0201
716.1936	-0.016
716.3733	0.0129
716.5531	-0.0289
716.7328	0.0149
716.9126	0.0139
717.0923	-0.0152
717.2719	0.0239
717.4516	-0.0034
717.6312	0.0114
717.8109	0.0319
717.9905	0.01
718.1701	0.0105
718.3496	-0.0168
718.5292	0.0013
718.7087	-0.0091
718.8882	0.028
719.0677	-0.0097
719.2472	0.0118
719.4267	-0.0006
719.6061	-0.005
719.7856	0.0296
719.965	-0.0094
720.1443	-0.0216
720.3237	0.0041
720.5031	-0.0171
720.6824	-0.0037
720.8617	-0.0193
721.041	0.0195
721.2203	0.0042
721.3995	-0.0025
721.5788	0.0025
721.758	-0.0146
721.9372	-0.0071
722.1164	-0.0046
722.2956	-0.002
722.4747	0.0045
722.6538	0.0046
722.8329	0.0075
723.012	-0.012
723.1911	0.001
723.3702	0.0251
723.5492	0.0019
723.7282	-0.0138
723.9072	0.0273
724.0862	0.0101
724.2652	0.0006
724.4441	-0.0071
724.623	-0.0029
724.8019	0.011
724.9808	0.0136
725.1597	0.0122
725.3385	-0.0029
725.5174	0.0005
725.6962	-0.0056
725.875	0.026
726.0538	0.0163
726.2325	0.024
726.4112	-0.0084
726.59	0.004
726.7687	-0.0196
726.9474	0.0166
727.126	0.032
727.3047	-0.018
727.4833	0.0009
727.6619	0.0037
727.8405	-0.012
728.0191	0.0039
728.1976	0.0083
728.3762	0.0203
728.5547	0.0034
728.7332	0.0155
728.9116	0.0022
729.0901	0.0001
729.2686	0.0287
729.447	-0.0027
729.6254	0.0276
729.8038	0.0135
729.9821	-0.0068
730.1605	0.0054
730.3388	-0.0051
730.5171	0.0257
730.6954	0.0091
730.8737	0.0107
731.0519	-0.0164
731.2302	0.0286
731.4084	0.0054
731.5866	-0.0039
731.7648	0.0241
731.9429	0.0048
732.1211	0.017
732.2992	-0.0011
732.4773	0.0148
732.6554	-0.0072
732.8335	0.0189
733.0115	0.0135
733.1896	0.0009
733.3676	0.01
733.5456	-0.0103
733.7235	0.0075
733.9015	0.0075
734.0794	0.0005
734.2574	0.0008
734.4353	0.0046
734.6131	0.014
734.791	-0.0013
734.9689	-0.0027
735.1467	0.0023
735.3245	0.0458
735.5023	0.0053
735.68	-0.0112
735.8578	-0.0079
736.0355	0.015
736.2132	0.0084
736.3909	0.0275
736.5686	0.0004
736.7463	-0.0019
736.9239	0.013
737.1015	0.0042
737.2791	0.0334
737.4567	0.0167
737.6343	-0.0129
737.8118	0.0192
737.9894	-0.0051
738.1669	-0.0223
738.3444	0.0394
738.5218	-0.0308
738.6993	0.0023
738.8767	0.0003
739.0541	0.0001
739.2315	-0.0088
739.4089	0.0272
739.5863	0.0133
739.7636	-0.0037
739.9409	-0.0222
740.1182	0.0271
740.2955	0.0131
740.4728	-0.0089
740.65	-0.0059
740.8272	0.0354
741.0044	-0.0082
741.1816	0.007
741.3588	-0.0073
741.5359	0.0002
741.7131	0.0077
741.8902	0.0089
742.0673	-0.0157
742.2444	0.0149
742.4214	0.021
742.5985	0.0014
742.7755	0.0032
742.9525	-0.0228
743.1295	-0.0137
743.3064	0.007
743.4834	0.0257
743.6603	0.031
743.8372	-0.0433
744.0141	0.0309
744.191	0.0198
744.3678	-0.0287
744.5446	0.0167
744.7215	0.0114
744.8982	0.0228
745.075	0.0442
745.2518	0.0149
745.4285	0.0136
745.6052	-0.0223
745.7819	0.0048
745.9586	0.012
746.1353	-0.0163
746.3119	-0.0008
746.4885	-0.0003
746.6651	0.0164
746.8417	0.0104
747.0183	0.0341
747.1948	0.008
747.3714	0.0116
747.5479	0.0007
747.7244	0.0146
747.9008	-0.0325
748.0773	0.0332
748.2537	0.0217
748.4301	0.0236
748.6065	-0.0083
748.7829	-0.0266
748.9593	-0.0156
749.1356	0.0241
749.3119	0.0078
749.4882	0.0069
749.6645	0.0126
749.8408	-0.0005
750.017	0.0134
750.1933	-0.0252
750.3695	0.0167
750.5457	-0.0109
750.7218	0.0153
750.898	-0.0177
751.0741	0.0059
751.2502	0.0023
751.4263	0.0001
751.6024	-0.0025
751.7784	-0.015
751.9545	0.0083
752.1305	0.0155
752.3065	0.01
752.4825	0.009
752.6584	-0.0095
752.8344	-0.0043
753.0103	-0.0257
753.1862	0.0198
753.3621	-0.0096
753.5379	-0.0059
753.7138	0.0156
753.8896	0.0047
754.0654	0.0086
754.2412	0.016
754.417	0.0127
754.5927	0.02
754.7685	0.0113
754.9442	0.0388
755.1199	0.0317
755.2956	0.0192
755.4712	0.0137
755.6469	-0.0022
755.8225	0.0168
755.9981	0.0334
756.1736	0.0055
756.3492	-0.015
756.5248	0.0272
756.7003	0.0014
756.8758	-0.0103
757.0513	0.0047
757.2267	0.0152
757.4022	-0.0005
757.5776	-0.0037
757.753	0.0293
757.9284	0.0059
758.1038	0.0086
758.2791	-0.0062
758.4545	-0.0183
758.6298	0.003
758.8051	-0.0049
758.9803	0.0238
759.1556	-0.0033
759.3308	-0.0008
759.506	0.0103
759.6812	-0.0031
759.8564	-0.0039
760.0316	-0.0066
760.2067	0.0179
760.3819	-0.0055
760.557	0.0114
760.732	0.0026
760.9071	0.0005
761.0821	-0.0185
761.2572	0.0087
761.4322	0.0291
761.6072	0.009
761.7821	-0.0211
761.9571	0.0347
762.132	0.0063
762.3069	0.025
762.4818	0.0184
762.6567	0.012
762.8316	0.021
763.0064	0.0174
763.1812	0.0076
763.356	-0.0171
763.5308	0.0114
763.7055	-0.0055
763.8803	-0.0033
764.055	0.0049
764.2297	-0.0023
764.4044	0.0061
764.579	-0.0061
764.7537	0.0074
764.9283	-0.0018
765.1029	0.0055
765.2775	-0.001
765.4521	0.0211
765.6266	-0.0085
765.8011	0.0163
765.9756	0.0273
766.1501	0.0014
766.3246	-0.0075
766.4991	0.0006
766.6735	0.0453
766.8479	0.0203
767.0223	0.0342
767.1967	0.0059
767.371	0.0186
767.5454	0.0011
767.7197	0.0235
767.894	-0.0003
768.0683	0.0005
768.2425	0.0079
768.4168	0.0244
768.591	0.0173
768.7652	0.021
768.9394	-0.014
769.1135	0.0133
769.2877	0.0146
769.4618	0.0593
769.6359	0.012
769.81	0.0276
769.984	0.0047
770.1581	0.0142
770.3321	0.013
770.5061	0.0103
770.6801	0.0065
770.8541	0.0227
771.028	0.0334
771.202	0.0348
771.3759	0.0052
771.5498	-0.0114
771.7236	-0.0012
771.8975	0.0294
772.0713	0.0038
772.2451	-0.024
772.4189	0.0002
772.5927	-0.0311
772.7665	0.0159
772.9402	0.02
773.1139	-0.0069
773.2876	-0.0181
773.4613	0.003
773.635	0.0433
773.8086	0.0323
773.9822	0.0249
774.1558	0.0469
774.3294	0.005
774.503	-0.0087
774.6765	0.0099
774.8501	0.0071
775.0236	0.0182
775.1971	-0.0133
775.3705	0.0177
775.544	-0.0006
775.7174	0.0036
775.8908	0.0029
776.0642	0.0248
776.2376	-0.0072
776.4109	-0.0065
776.5843	-0.0144
776.7576	0.0158
776.9309	0.0526
777.1041	-0.0403
777.2774	0.0393
777.4506	-0.0498
777.6238	0.0164
777.797	0.0493
777.9702	-0.0177
778.1434	0.0159
778.3165	-0.033
778.4896	-0.007
778.6627	0.0573
778.8358	0.009
779.0089	-0.0294
779.1819	0.0194
779.3549	0.0019
779.5279	-0.0244
779.7009	0.0471
779.8739	0.0818
780.0468	-0.004
780.2197	0.0193
780.3926	-0.0307
780.5655	-0.0111
780.7384	0.0256
780.9112	0.0343
781.0841	0.0105
781.2569	-0.0025
781.4297	-0.0048
781.6024	0.0197
781.7752	0.0289
781.9479	0.007
782.1206	-0.0169
782.2933	0.0076
782.466	0.0345
782.6386	-0.0155
782.8113	-0.0044
782.9839	0.0014
783.1565	0.0327
783.329	0.0031
783.5016	0.0082
783.6741	-0.0253
783.8466	0.047
784.0191	0.0092
784.1916	-0.0114
784.3641	0.0113
784.5365	0.0041
784.7089	-0.0096
784.8813	0.0744
785.0537	0.0366
785.2261	0.0062
785.3984	0.0093
785.5707	-0.0228
785.743	0.022
785.9153	0.0215
786.0876	-0.0005
786.2598	-0.0237
786.432	-0.0187
786.6042	0.0214
786.7764	-0.0253
786.9486	0.0172
787.1207	0.0296
787.2928	0.0222
787.4649	0.0167
787.637	0.0134
787.8091	0.0073
787.9811	0.0352
788.1532	0.0225
788.3252	0.0223
788.4972	0.0102
788.6691	0.0103
788.8411	0.0069
789.013	0.0227
789.1849	0.0169
789.3568	-0.0013
789.5287	0.0699
789.7005	-0.0254
789.8723	-0.0408
790.0442	-0.045
790.2159	-0.0149
790.3877	0.0355
790.5595	-0.0109
790.7312	-0.0277
790.9029	-0.0304
791.0746	-0.0417
791.2463	-0.0563
791.4179	0.0209
791.5896	-0.0227
791.7612	-0.0259
791.9328	-0.0297
792.1044	0.0119
792.2759	-0.064
792.4474	-0.0156
792.619	0.0178
792.7905	0.0409
792.9619	0.0162
793.1334	0.0828
793.3048	0.0433
793.4762	-0.0243
793.6476	-0.0497
793.819	0.0002
793.9904	-0.0245
794.1617	-0.0222
794.333	-0.009
794.5043	0.0089
794.6756	-0.0112
794.8469	0.0082
795.0181	-0.0085
795.1893	0.0046
795.3605	0.0176
795.5317	-0.026
795.7029	0.0114
795.874	-0.0224
796.0452	0.059
796.2163	0.0683
796.3873	0.0927
796.5584	0.0835
796.7294	-0.0113
796.9005	-0.0111
797.0715	-0.015
797.2425	0.0692
797.4134	-0.0119
797.5844	0.0366
797.7553	-0.0833
797.9262	0.0569
798.0971	0.0119
798.2679	0.0384
798.4388	0.0793
798.6096	0.0059
798.7804	0.0078
798.9512	0.0524
799.122	-0.0097
799.2927	0.0155
799.4635	-0.0069
799.6342	-0.0146
799.8049	0.0545
799.9755	-0.0091
800.1462	0.0588
800.3168	0.0389
800.4874	-0.0509
800.658	0.1236
800.8286	0.0327
800.9991	0.0666
801.1696	0.0229
801.3402	0.0495
801.5106	0.0358
801.6811	-0.0653
801.8516	0.093
802.022	-0.025
802.1924	-0.0686
802.3628	0.0594
802.5332	0.0109
802.7035	0.0021
802.8739	-0.0454
803.0442	0.0044
803.2145	0.0138
803.3847	-0.0072
803.555	0.0314
803.7252	-0.0134
803.8954	-0.0535
804.0656	-0.023
804.2358	0.0308
804.4059	0.0935
804.5761	-0.0835
804.7462	-0.0406
804.9163	0.0703
805.0864	0.0407
805.2564	-0.0426
805.4264	0.0278
805.5965	-0.0347
805.7665	-0.047
805.9364	0.0052
806.1064	-0.0054
806.2763	0.0377
806.4462	-0.0196
806.6161	0.0219
806.786	0.0105
806.9559	0.0142
807.1257	-0.0185
807.2955	-0.0446
807.4653	0.039
807.6351	0.0191
807.8048	0.0115
807.9746	0.0354
808.1443	-0.0553
808.314	0.0605
808.4837	0.0562
808.6533	-0.0525
808.8229	-0.0342
808.9926	0.0087
809.1622	0.022
809.3317	-0.0528
809.5013	-0.0379
809.6708	-0.006
809.8403	0.0104
810.0098	0.0535
810.1793	0.0686
810.3488	-0.0433
810.5182	0.1367
810.6876	-0.0275
810.857	-0.0835
811.0264	-0.0667
811.1958	0.1086
811.3651	-0.0199
811.5344	0.0551
811.7037	0.0634
811.873	0.0142
812.0422	0.0159
812.2115	-0.056
812.3807	-0.1397
812.5499	0.0249
812.7191	-0.0346
812.8882	-0.0549
813.0574	-0.0342
813.2265	0.0499
813.3956	0.0332
813.5646	-0.0214
813.7337	0.0322
813.9027	-0.0998
814.0718	-0.0065
814.2407	0.0005
814.4097	0.0757
814.5787	0.0409
814.7476	0.0353
814.9165	0.0287
815.0854	0.0083
815.2543	0.0803
815.4232	0.0596
815.592	0.0268
815.7608	-0.1089
815.9296	-0.0155
816.0984	0.0012
816.2671	-0.0403
816.4359	0.1367
816.6046	0.0166
816.7733	-0.0124
816.942	-0.1054
817.1106	0.1499
817.2793	-0.0133
817.4479	-0.0244
817.6165	-0.0438
817.785	0.1021
817.9536	0.0606
818.1221	0.0175
818.2906	-0.103
818.4591	0.0007
818.6276	0.0339
818.7961	-0.0748
818.9645	-0.0166
819.1329	-0.011
819.3013	-0.0556
819.4697	0.0929
819.638	0.0343
819.8064	-0.0396
819.9747	0.0044
820.143	-0.1485
820.3113	0.2161
820.4795	0.0176
820.6477	0.0987
820.816	0.036
820.9842	0.1248
821.1523	-0.0537
821.3205	-0.0509
821.4886	-0.0815
821.6567	-0.0941
821.8248	0.2278
821.9929	-0.1828
822.1609	-0.0281
822.329	-0.065
822.497	0.0587
822.665	0.0489
822.833	-0.0778
823.0009	0.0457
823.1688	-0.0936
823.3367	0.1856
823.5046	0.0949
823.6725	-0.015
823.8404	-0.0308
824.0082	-0.0641
824.176	-0.0275
824.3438	0.1325
824.5116	-0.0116
824.6793	0.1376
824.847	0.3919
825.0147	0.1827
825.1824	0.0479
825.3501	0.0786
825.5177	0.0774
825.6854	0.0609
825.853	-0.0576
826.0206	0.0591
826.1881	-0.0371
826.3557	0.1527
826.5232	0.1614
826.6907	0.0981
826.8582	-0.1046
827.0257	0.2577
827.1931	0.1591
827.3605	0.1096
827.528	-0.1281
827.6953	-0.0898
827.8627	-0.1008
828.03	0.1084
828.1974	0.0624
828.3647	0.1555
828.532	-0.0329
828.6992	0.0817
828.8665	-0.2202
829.0337	-0.0099
829.2009	-0.1032
829.3681	0.0814
829.5352	-0.181
829.7024	-0.0783
829.8695	-0.072
830.0366	0.1856
830.2037	0.0584
830.3707	0.2072
830.5378	0.1082
830.7048	-0.1788
830.8718	0.2084
831.0388	0.1693
831.2057	-0.0932
831.3727	-0.3231
831.5396	-0.1018
831.7065	-0.9347
831.8734	0.1162
832.0402	0.3271
832.2071	-0.431
832.3739	0.0278
832.5407	-0
832.7075	-0.3878
832.8742	0.5003
833.041	0.1197
833.2077	0.1833
833.3744	0.0398
833.541	-0.0632
833.7077	-0.0282
833.8743	-0.0501
834.0409	0.1224
834.2075	0.0087
834.3741	0.0714
834.5407	-0.08
834.7072	0.2705
834.8737	0.1411
835.0402	0.2267
835.2067	0.1709
835.3731	0.1121
835.5395	-0.0796
835.706	-0.3542
835.8723	-0.069
836.0387	0.0346
836.2051	0.2072
836.3714	0.0936
836.5377	-0.2463
836.704	0.3444
836.8703	-0.1854
837.0365	-0.746
837.2027	0.2709
837.3689	0.1112
837.5351	0.7453
837.7013	-0.2429
837.8674	-0
838.0335	-0.0236
838.1997	-0.2396
838.3657	-0
838.5318	-0.7824
838.6978	-0
838.8639	-0.432
839.0299	0.0689
839.1958	0.1481
839.3618	-0.2371
839.5277	0.1181
839.6937	-0.0555
839.8596	-0.1494
840.0254	0.0569
840.1913	-0.1179
840.3571	0.1586
840.523	-0
840.6888	-0.0448
840.8545	-0.1835
841.0203	-0.1896
841.186	-0.1087
841.3517	0.0322
841.5174	0.2425
841.6831	0.3016
841.8488	0.2177
842.0144	-0.1009
842.18	0.0621
842.3456	-0.4595
842.5112	-0
842.6767	0.1997
842.8422	0.0135
843.0077	0.6495
843.1732	0.5176
843.3387	0.8846
843.5042	-0
843.6696	-0.115
843.835	-0.2338
844.0004	-0.1985
844.1657	-0
844.3311	0.8405
844.4964	-0.7123
844.6617	0.5919
844.827	-0
844.9923	1.2321
845.1575	-0
845.3227	-0.4871
845.4879	-0.1687
845.6531	0.0836
845.8183	-0.015
845.9834	-0
846.1485	1.0618
846.3136	-0.3185
846.4787	-0
846.6438	-0.3274
846.8088	1.0109
846.9738	-0
847.1388	0.1521
847.3038	-0
847.4687	0.0849
847.6337	-0.7098
847.7986	-0.3016
847.9635	-0.1494
848.1284	-0
848.2932	0.109
848.458	-1.0569
848.6228	1.4664
848.7876	-0
848.9524	-0
849.1172	-1.6363
849.2819	-0
849.4466	0.3077
849.6113	0.7629
849.7759	-0.2293
849.9406	-0.1884
850.1052	-1.0849
850.2698	-0.2325
850.4344	-0.5393
850.599	-0.0599
850.7635	0.0581
850.928	0.2177
851.0925	0.4099
851.257	-0
851.4215	0.3973
851.5859	0.1706
851.7503	-0.0718
851.9147	-0.3955
852.0791	-0.2216
852.2434	0.3148
852.4078	-0.2999
852.5721	0.5893
852.7364	0.1104
852.9007	-0.1388
853.0649	-0
853.2291	0.0031
853.3934	-0
853.5575	-0.0298
853.7217	1.0939
853.8859	-0
854.05	-0.4293
854.2141	0.309
854.3782	0.2541
854.5423	0.1939
854.7063	0.1464
854.8703	-0.0801
855.0343	0.6529
855.1983	0.034
855.3623	0.204
855.5262	-0
855.6901	1.0589
855.854	-0.043
856.0179	-0.4359
856.1818	0.4383
856.3456	0.1917
856.5094	-0
856.6732	-0.5778
856.837	-0
857.0008	-0
857.1645	1.8939
857.3282	0.2474
857.4919	-0.0052
857.6556	-0
857.8192	0.0504
857.9828	-0.397
858.1465	-0
858.31	-0
858.4736	0.341
858.6372	0.0079
858.8007	-0.0438
858.9642	0.2424
859.1277	-0
859.2911	-0.6721
859.4546	-0
859.618	0.4017
859.7814	1.0451
859.9448	-0
860.1081	-0.3156
860.2715	-0
860.4348	-0.0085
860.5981	0.1391
860.7614	0.1474
860.9246	0.3723
861.0879	-0.0394
861.2511	-0.4604
861.4143	-0
861.5774	-0.3595
861.7406	0.283
861.9037	-0
862.0668	0.1493
862.2299	-0
862.393	-0
862.556	-0.09
862.7191	-0.4228
862.8821	0.218
863.0451	0.124
863.208	-0.4349
863.371	-0.6602
863.5339	0.3239
863.6968	-0.0661
863.8597	0.1819
864.0225	0.5934
864.1854	-0.2469
864.3482	-0
864.511	0.2686
864.6737	-0.0411
864.8365	-0.1574
864.9992	-0
865.1619	0.0388
865.3246	-1.9571
865.4873	0.5277
865.65	0.3131
865.8126	-0
865.9752	-0
866.1378	0.226
866.3004	0.3339
866.4629	-1.8495
866.6254	-0
866.7879	-0.3019
866.9504	0.1284
867.1129	-0
867.2753	-0.0769
867.4377	0.5958
867.6001	-0.6158
867.7625	-0.296
867.9249	1.0016
868.0872	-0.3585
868.2495	0.8016
868.4118	-0.1997
868.5741	-0
868.7363	-0
868.8986	-0.1804
869.0608	-0
869.223	-0.1944
869.3851	-0.2353
869.5473	0.0886
869.7094	-0
869.8715	-0.0741
870.0336	-0.0449
870.1957	-0
870.3577	0.3976
870.5197	0.4031
870.6817	-0.8827
870.8437	0.4742
871.0057	-0.2282
871.1676	0.0825
871.3295	0.1669
871.4914	-1.6532
871.6533	-0
871.8151	0.8438
871.977	-0.517
872.1388	-0
872.3006	-0.5746
872.4623	-0.916
872.6241	-0
872.7858	0.4748
872.9475	0.7089
873.1092	0.1104
873.2709	0.9292
873.4325	-1.5614
873.5941	-0
873.7557	-0
873.9173	0.2098
874.0789	0.531
874.2404	-0
874.4019	0.4054
874.5634	-0
874.7249	0.7509
874.8863	0.299
875.0478	-0.0217
875.2092	-0
875.3706	0.4786
875.5319	0.2344
875.6933	0.1008
875.8546	-0.0729
876.0159	0.2866
876.1772	-0
876.3385	0.5851
876.4997	-0.1465
876.6609	-0
876.8221	-0
876.9833	0.1818
877.1445	0.047
877.3056	-1.1705
877.4667	-0
877.6278	-0
877.7889	0.3176
877.9499	0.2066
878.111	-0.5105
878.272	-0
878.433	1.2757
878.5939	0.0842
878.7549	-0.4092
878.9158	-0
879.0767	0.074
879.2376	-0.0835
879.3984	-0
879.5593	0.5518
879.7201	-0
879.8809	-0.2611
880.0417	-0.0661
880.2024	0.2264
880.3632	-0.1974
880.5239	-0.2429
880.6846	-0.4686
880.8452	-0
881.0059	-0
881.1665	-0.2189
881.3271	0.5247
881.4877	-0
881.6483	-1.1217
881.8088	-0
881.9693	-0
882.1298	-0
882.2903	-0
