Data from D4ACN5uM440nmA_Absorbance_13-50-25-672.txt Node
Date: Fri Feb 21 13:50:25 GMT 2025
User: LASERRRRR
Spectrometer: FLMT03099
Trigger mode: 0
Integration Time (sec): 1.500000E-2
Scans to average: 1
Electric dark correction enabled: true
Nonlinearity correction enabled: false
Boxcar width: 0
XAxis mode: Wavelengths
Number of Pixels in Spectrum: 3648
>>>>>Begin Spectral Data<<<<<
179.3399	-0.5166
179.5586	-0.5166
179.7771	-0.5166
179.9957	-0.3528
180.2143	-0
180.4329	-0
180.6514	-0
180.8699	-0.3698
181.0885	0.0491
181.307	0.1799
181.5255	0.1029
181.744	0.0141
181.9625	0.463
182.181	-0
182.3994	-0
182.6179	-0
182.8363	-0
183.0547	0.2343
183.2732	0.0354
183.4916	0.1358
183.71	0.1695
183.9284	-0.0133
184.1467	0.1232
184.3651	0.1097
184.5835	0.2959
184.8018	0.1769
185.0201	0.259
185.2385	0.1416
185.4568	0.1133
185.6751	0.0637
185.8934	0.2367
186.1117	-0.1298
186.3299	0.0665
186.5482	0.1648
186.7664	0.0966
186.9847	0.0222
187.2029	0.3216
187.4211	0.0098
187.6393	0.3436
187.8575	0.2748
188.0757	0.2331
188.2939	0.2391
188.512	0.4651
188.7302	0.1437
188.9483	0.2702
189.1665	0.8118
189.3846	0.2462
189.6027	0.2002
189.8208	0.1753
190.0389	0.2658
190.257	0.0253
190.475	0.2391
190.6931	0.0618
190.9111	0.0966
191.1292	0.0861
191.3472	0.0789
191.5652	0.3423
191.7832	0.1633
192.0012	0.1721
192.2192	0.2303
192.4371	0.2586
192.6551	0.1695
192.873	0.1945
193.091	0.2183
193.3089	0.2174
193.5268	0.437
193.7447	0.1696
193.9626	0.1393
194.1805	0.2219
194.3984	0.2803
194.6162	0.268
194.8341	0.2309
195.0519	0.24
195.2697	0.2792
195.4875	0.2351
195.7054	0.2219
195.9231	0.2516
196.1409	0.2765
196.3587	0.334
196.5765	0.3065
196.7942	0.3091
197.012	0.3405
197.2297	0.295
197.4474	0.3517
197.6651	0.3357
197.8828	0.3435
198.1005	0.3906
198.3182	0.3644
198.5358	0.3705
198.7535	0.4265
198.9711	0.4045
199.1888	0.3419
199.4064	0.4322
199.624	0.4348
199.8416	0.35
200.0592	0.3974
200.2767	0.3315
200.4943	0.4028
200.7119	0.4143
200.9294	0.4133
201.1469	0.4134
201.3645	0.4518
201.582	0.364
201.7995	0.4245
202.017	0.4106
202.2344	0.4243
202.4519	0.3882
202.6694	0.4076
202.8868	0.3938
203.1042	0.4233
203.3217	0.4021
203.5391	0.3885
203.7565	0.3702
203.9739	0.3404
204.1913	0.3507
204.4086	0.3641
204.626	0.3815
204.8433	0.3467
205.0607	0.3346
205.278	0.3333
205.4953	0.3472
205.7126	0.3214
205.9299	0.3384
206.1472	0.3162
206.3644	0.3482
206.5817	0.2967
206.7989	0.3356
207.0162	0.296
207.2334	0.3265
207.4506	0.3172
207.6678	0.3027
207.885	0.2954
208.1022	0.3024
208.3194	0.2875
208.5365	0.289
208.7537	0.3051
208.9708	0.3086
209.1879	0.2881
209.405	0.2662
209.6222	0.2544
209.8392	0.2885
210.0563	0.286
210.2734	0.2861
210.4905	0.2724
210.7075	0.2776
210.9245	0.2709
211.1416	0.2766
211.3586	0.2576
211.5756	0.2558
211.7926	0.2517
212.0096	0.2663
212.2265	0.2617
212.4435	0.2447
212.6604	0.2423
212.8774	0.2607
213.0943	0.2565
213.3112	0.242
213.5281	0.2517
213.745	0.2529
213.9619	0.2377
214.1788	0.2622
214.3956	0.2362
214.6125	0.2512
214.8293	0.2671
215.0461	0.2419
215.2629	0.2594
215.4798	0.2407
215.6965	0.2461
215.9133	0.2371
216.1301	0.2412
216.3469	0.2539
216.5636	0.2487
216.7803	0.2508
216.9971	0.2531
217.2138	0.2493
217.4305	0.2567
217.6472	0.2458
217.8639	0.2524
218.0805	0.2658
218.2972	0.2547
218.5138	0.2301
218.7305	0.263
218.9471	0.2519
219.1637	0.255
219.3803	0.2614
219.5969	0.2472
219.8135	0.261
220.0301	0.2491
220.2466	0.2602
220.4632	0.2403
220.6797	0.2628
220.8962	0.2473
221.1127	0.2505
221.3292	0.2666
221.5457	0.2681
221.7622	0.2704
221.9787	0.2783
222.1951	0.2685
222.4116	0.2739
222.628	0.2706
222.8444	0.2733
223.0608	0.2737
223.2772	0.286
223.4936	0.2867
223.71	0.2832
223.9264	0.2821
224.1427	0.2893
224.3591	0.2826
224.5754	0.2878
224.7917	0.2879
225.008	0.2969
225.2243	0.3007
225.4406	0.3051
225.6569	0.2952
225.8732	0.3008
226.0894	0.3032
226.3057	0.3084
226.5219	0.3105
226.7381	0.3183
226.9543	0.3159
227.1705	0.3247
227.3867	0.3209
227.6029	0.3167
227.8191	0.33
228.0352	0.3435
228.2513	0.3474
228.4675	0.3376
228.6836	0.3505
228.8997	0.3348
229.1158	0.3585
229.3319	0.3573
229.548	0.3428
229.764	0.361
229.9801	0.3739
230.1961	0.3754
230.4121	0.3616
230.6282	0.3801
230.8442	0.3845
231.0602	0.3766
231.2761	0.3859
231.4921	0.3881
231.7081	0.3996
231.924	0.3974
232.14	0.4052
232.3559	0.3984
232.5718	0.4117
232.7877	0.3978
233.0036	0.4046
233.2195	0.4093
233.4353	0.4211
233.6512	0.4095
233.867	0.4279
234.0829	0.4334
234.2987	0.4219
234.5145	0.4264
234.7303	0.445
234.9461	0.4292
235.1619	0.4362
235.3776	0.4298
235.5934	0.4337
235.8091	0.4327
236.0249	0.4424
236.2406	0.4329
236.4563	0.4414
236.672	0.4461
236.8877	0.4467
237.1034	0.4382
237.319	0.4436
237.5347	0.4485
237.7503	0.4499
237.966	0.4572
238.1816	0.4537
238.3972	0.4567
238.6128	0.4568
238.8284	0.4613
239.0439	0.4618
239.2595	0.4589
239.475	0.4681
239.6906	0.4556
239.9061	0.4506
240.1216	0.4516
240.3371	0.4647
240.5526	0.4586
240.7681	0.4556
240.9836	0.4606
241.199	0.4537
241.4145	0.4494
241.6299	0.4444
241.8453	0.4347
242.0607	0.4307
242.2761	0.4338
242.4915	0.4299
242.7069	0.4146
242.9223	0.4199
243.1376	0.4154
243.353	0.4074
243.5683	0.3936
243.7836	0.3856
243.9989	0.3736
244.2142	0.3719
244.4295	0.3783
244.6448	0.3706
244.86	0.3513
245.0753	0.3425
245.2905	0.339
245.5057	0.3365
245.721	0.3414
245.9362	0.3254
246.1514	0.3187
246.3665	0.3077
246.5817	0.3072
246.7969	0.2956
247.012	0.2921
247.2271	0.2962
247.4423	0.2843
247.6574	0.2828
247.8725	0.2768
248.0876	0.2699
248.3026	0.267
248.5177	0.2522
248.7328	0.2493
248.9478	0.2484
249.1628	0.2526
249.3779	0.2316
249.5929	0.2423
249.8079	0.2341
250.0228	0.2355
250.2378	0.2351
250.4528	0.2263
250.6677	0.2255
250.8827	0.2144
251.0976	0.2119
251.3125	0.224
251.5274	0.212
251.7423	0.2099
251.9572	0.2112
252.172	0.2083
252.3869	0.2089
252.6017	0.2024
252.8166	0.2028
253.0314	0.1905
253.2462	0.1907
253.461	0.1952
253.6758	0.1919
253.8906	0.1969
254.1053	0.1967
254.3201	0.1968
254.5348	0.1848
254.7496	0.1811
254.9643	0.1884
255.179	0.1865
255.3937	0.1872
255.6083	0.1909
255.823	0.1872
256.0377	0.1814
256.2523	0.1882
256.467	0.1948
256.6816	0.1839
256.8962	0.1843
257.1108	0.1855
257.3254	0.1815
257.54	0.1744
257.7545	0.1818
257.9691	0.1779
258.1836	0.1755
258.3981	0.1728
258.6127	0.1741
258.8272	0.1815
259.0417	0.178
259.2561	0.1816
259.4706	0.1771
259.6851	0.1778
259.8995	0.1734
260.114	0.1748
260.3284	0.1697
260.5428	0.1778
260.7572	0.1742
260.9716	0.1794
261.186	0.1727
261.4003	0.1754
261.6147	0.1699
261.829	0.1774
262.0433	0.1801
262.2577	0.1798
262.472	0.1784
262.6863	0.1847
262.9005	0.1779
263.1148	0.1777
263.3291	0.1829
263.5433	0.1831
263.7576	0.1834
263.9718	0.1804
264.186	0.1777
264.4002	0.1804
264.6144	0.1852
264.8286	0.1843
265.0427	0.1847
265.2569	0.1791
265.471	0.1869
265.6851	0.187
265.8993	0.1833
266.1134	0.186
266.3275	0.1844
266.5415	0.1842
266.7556	0.1887
266.9697	0.184
267.1837	0.1875
267.3978	0.1836
267.6118	0.1735
267.8258	0.1806
268.0398	0.1864
268.2538	0.1832
268.4677	0.1784
268.6817	0.1784
268.8957	0.176
269.1096	0.171
269.3235	0.1814
269.5374	0.1798
269.7514	0.1806
269.9652	0.183
270.1791	0.1717
270.393	0.1731
270.6068	0.1805
270.8207	0.1653
271.0345	0.1745
271.2483	0.1685
271.4622	0.1753
271.676	0.1779
271.8897	0.1679
272.1035	0.182
272.3173	0.1743
272.531	0.1736
272.7448	0.1787
272.9585	0.1737
273.1722	0.1716
273.3859	0.1801
273.5996	0.1766
273.8133	0.1755
274.0269	0.1744
274.2406	0.1706
274.4542	0.1759
274.6679	0.1835
274.8815	0.1825
275.0951	0.1852
275.3087	0.1842
275.5223	0.1784
275.7358	0.1765
275.9494	0.1826
276.1629	0.1844
276.3765	0.1782
276.59	0.1803
276.8035	0.1787
277.017	0.1851
277.2305	0.1844
277.444	0.1808
277.6574	0.1871
277.8709	0.1845
278.0843	0.1848
278.2978	0.1888
278.5112	0.191
278.7246	0.1799
278.938	0.1854
279.1513	0.1833
279.3647	0.1869
279.5781	0.1855
279.7914	0.185
280.0047	0.1883
280.2181	0.1831
280.4314	0.1819
280.6447	0.189
280.8579	0.1761
281.0712	0.1835
281.2845	0.1818
281.4977	0.1835
281.711	0.1838
281.9242	0.1917
282.1374	0.1831
282.3506	0.1826
282.5638	0.1809
282.7769	0.1825
282.9901	0.1834
283.2033	0.186
283.4164	0.1841
283.6295	0.185
283.8426	0.1829
284.0557	0.186
284.2688	0.1858
284.4819	0.1823
284.695	0.1867
284.908	0.1859
285.1211	0.1874
285.3341	0.1855
285.5471	0.1866
285.7601	0.1854
285.9731	0.1854
286.1861	0.1863
286.3991	0.1884
286.612	0.1869
286.825	0.1889
287.0379	0.1873
287.2508	0.1846
287.4637	0.1842
287.6766	0.1886
287.8895	0.1845
288.1024	0.1892
288.3152	0.1909
288.5281	0.1856
288.7409	0.1957
288.9538	0.1908
289.1666	0.1856
289.3794	0.1873
289.5922	0.185
289.8049	0.1842
290.0177	0.1863
290.2304	0.1912
290.4432	0.1861
290.6559	0.1884
290.8686	0.1846
291.0813	0.189
291.294	0.1893
291.5067	0.1808
291.7194	0.1896
291.932	0.1872
292.1447	0.1888
292.3573	0.1928
292.5699	0.1893
292.7825	0.1915
292.9951	0.1905
293.2077	0.1831
293.4203	0.1894
293.6328	0.181
293.8454	0.1878
294.0579	0.1882
294.2704	0.1955
294.4829	0.1917
294.6954	0.1894
294.9079	0.191
295.1204	0.1863
295.3328	0.1934
295.5453	0.1919
295.7577	0.1916
295.9701	0.1912
296.1825	0.1884
296.3949	0.1912
296.6073	0.1795
296.8197	0.1869
297.0321	0.19
297.2444	0.1865
297.4567	0.1893
297.6691	0.1882
297.8814	0.1967
298.0937	0.192
298.306	0.1898
298.5182	0.1912
298.7305	0.1871
298.9428	0.1914
299.155	0.1877
299.3672	0.189
299.5794	0.1898
299.7916	0.1869
300.0038	0.1852
300.216	0.1893
300.4282	0.1845
300.6403	0.1925
300.8525	0.1884
301.0646	0.1858
301.2767	0.1883
301.4888	0.1864
301.7009	0.1921
301.913	0.1888
302.125	0.1889
302.3371	0.1919
302.5491	0.1924
302.7612	0.1931
302.9732	0.1913
303.1852	0.19
303.3972	0.1878
303.6092	0.1915
303.8211	0.1882
304.0331	0.1873
304.245	0.1833
304.457	0.1903
304.6689	0.1848
304.8808	0.1851
305.0927	0.1882
305.3046	0.1851
305.5164	0.1831
305.7283	0.1818
305.9401	0.1731
306.152	0.1791
306.3638	0.1814
306.5756	0.1842
306.7874	0.1752
306.9992	0.175
307.2109	0.1736
307.4227	0.1661
307.6344	0.1766
307.8462	0.1659
308.0579	0.1705
308.2696	0.1674
308.4813	0.1673
308.693	0.161
308.9046	0.1639
309.1163	0.1556
309.328	0.1576
309.5396	0.1537
309.7512	0.1572
309.9628	0.1531
310.1744	0.1507
310.386	0.1435
310.5976	0.154
310.8091	0.1531
311.0207	0.1496
311.2322	0.1478
311.4437	0.1391
311.6552	0.1467
311.8667	0.1448
312.0782	0.1435
312.2897	0.1405
312.5012	0.136
312.7126	0.1367
312.924	0.1401
313.1355	0.1403
313.3469	0.1357
313.5583	0.1359
313.7696	0.1329
313.981	0.1373
314.1924	0.1306
314.4037	0.1345
314.6151	0.1326
314.8264	0.1371
315.0377	0.1296
315.249	0.1298
315.4603	0.1305
315.6716	0.1342
315.8828	0.1289
316.0941	0.1338
316.3053	0.1276
316.5165	0.1291
316.7277	0.1189
316.9389	0.1301
317.1501	0.125
317.3613	0.1276
317.5724	0.127
317.7836	0.1271
317.9947	0.1254
318.2058	0.1242
318.417	0.1248
318.6281	0.1268
318.8391	0.1301
319.0502	0.1302
319.2613	0.1273
319.4723	0.1247
319.6834	0.1257
319.8944	0.1244
320.1054	0.1261
320.3164	0.1252
320.5274	0.1306
320.7383	0.129
320.9493	0.1227
321.1602	0.123
321.3712	0.125
321.5821	0.1219
321.793	0.1342
322.0039	0.1245
322.2148	0.1265
322.4257	0.1278
322.6365	0.1269
322.8474	0.1336
323.0582	0.1303
323.269	0.1244
323.4798	0.1279
323.6906	0.1219
323.9014	0.1255
324.1122	0.119
324.3229	0.1308
324.5337	0.1336
324.7444	0.1329
324.9551	0.1298
325.1658	0.1248
325.3765	0.1273
325.5872	0.1329
325.7979	0.1272
326.0085	0.1233
326.2192	0.1294
326.4298	0.1319
326.6404	0.134
326.851	0.1267
327.0616	0.1354
327.2722	0.1374
327.4828	0.1303
327.6933	0.139
327.9039	0.1369
328.1144	0.1299
328.3249	0.1326
328.5354	0.1299
328.7459	0.1358
328.9564	0.1335
329.1669	0.1402
329.3773	0.1394
329.5878	0.1354
329.7982	0.1387
330.0086	0.1359
330.219	0.1376
330.4294	0.1365
330.6398	0.1405
330.8502	0.1408
331.0605	0.1333
331.2708	0.138
331.4812	0.142
331.6915	0.1416
331.9018	0.1376
332.1121	0.1415
332.3224	0.1383
332.5326	0.1315
332.7429	0.1397
332.9531	0.1432
333.1633	0.1438
333.3735	0.1399
333.5837	0.1381
333.7939	0.144
334.0041	0.1439
334.2143	0.1377
334.4244	0.1454
334.6346	0.1377
334.8447	0.1389
335.0548	0.1438
335.2649	0.1401
335.475	0.1463
335.685	0.1466
335.8951	0.1369
336.1051	0.1423
336.3152	0.1477
336.5252	0.1406
336.7352	0.1371
336.9452	0.1416
337.1552	0.1412
337.3652	0.1381
337.5751	0.1389
337.7851	0.1433
337.995	0.143
338.2049	0.1417
338.4148	0.1487
338.6247	0.1408
338.8346	0.1426
339.0445	0.1413
339.2543	0.1457
339.4642	0.1426
339.674	0.1408
339.8838	0.1446
340.0936	0.1448
340.3034	0.1426
340.5132	0.1346
340.7229	0.1468
340.9327	0.1537
341.1424	0.1489
341.3522	0.1403
341.5619	0.1544
341.7716	0.1495
341.9813	0.1506
342.1909	0.1472
342.4006	0.1535
342.6102	0.1507
342.8199	0.1454
343.0295	0.1557
343.2391	0.1526
343.4487	0.1507
343.6583	0.1558
343.8679	0.1495
344.0774	0.1544
344.287	0.158
344.4965	0.1587
344.706	0.1558
344.9155	0.1509
345.125	0.1612
345.3345	0.166
345.544	0.1605
345.7534	0.16
345.9629	0.1641
346.1723	0.1684
346.3817	0.1659
346.5911	0.1655
346.8005	0.1692
347.0099	0.1696
347.2193	0.1716
347.4286	0.1697
347.638	0.1729
347.8473	0.1792
348.0566	0.1671
348.2659	0.1661
348.4752	0.1644
348.6845	0.1773
348.8937	0.1672
349.103	0.1691
349.3122	0.1749
349.5214	0.1767
349.7306	0.1769
349.9398	0.1712
350.149	0.17
350.3582	0.1791
350.5674	0.174
350.7765	0.1797
350.9856	0.178
351.1948	0.1824
351.4039	0.1802
351.613	0.1808
351.822	0.1844
352.0311	0.1844
352.2402	0.176
352.4492	0.1739
352.6582	0.1809
352.8672	0.1844
353.0762	0.1827
353.2852	0.1793
353.4942	0.183
353.7032	0.1783
353.9121	0.1793
354.1211	0.1853
354.33	0.1816
354.5389	0.1842
354.7478	0.179
354.9567	0.1848
355.1655	0.1861
355.3744	0.1852
355.5833	0.1842
355.7921	0.1897
356.0009	0.1802
356.2097	0.1736
356.4185	0.1761
356.6273	0.182
356.8361	0.1907
357.0448	0.1866
357.2536	0.1885
357.4623	0.1928
357.671	0.1941
357.8797	0.1852
358.0884	0.1882
358.2971	0.1848
358.5057	0.1951
358.7144	0.1884
358.923	0.199
359.1316	0.2029
359.3402	0.1894
359.5488	0.189
359.7574	0.2032
359.966	0.1973
360.1746	0.203
360.3831	0.2038
360.5916	0.2002
360.8002	0.208
361.0087	0.1956
361.2172	0.2026
361.4256	0.207
361.6341	0.2087
361.8426	0.2048
362.051	0.2049
362.2594	0.203
362.4678	0.2082
362.6762	0.2121
362.8846	0.2063
363.093	0.2142
363.3014	0.2151
363.5097	0.2066
363.718	0.2162
363.9264	0.2156
364.1347	0.2154
364.343	0.2167
364.5513	0.2171
364.7595	0.2267
364.9678	0.213
365.176	0.2218
365.3842	0.2187
365.5925	0.2246
365.8007	0.2299
366.0089	0.2284
366.217	0.2262
366.4252	0.2226
366.6333	0.2212
366.8415	0.223
367.0496	0.2262
367.2577	0.23
367.4658	0.2365
367.6739	0.2201
367.882	0.2293
368.09	0.2277
368.2981	0.2346
368.5061	0.2368
368.7141	0.2318
368.9221	0.2438
369.1301	0.2425
369.3381	0.233
369.5461	0.2429
369.754	0.2401
369.962	0.2338
370.1699	0.2449
370.3778	0.2438
370.5857	0.2344
370.7936	0.246
371.0015	0.2398
371.2093	0.2455
371.4172	0.2408
371.625	0.2421
371.8328	0.2492
372.0406	0.2541
372.2484	0.2455
372.4562	0.2561
372.664	0.2427
372.8717	0.2566
373.0795	0.2563
373.2872	0.2553
373.4949	0.2548
373.7026	0.255
373.9103	0.2535
374.118	0.2555
374.3256	0.2594
374.5333	0.2551
374.7409	0.2574
374.9485	0.2533
375.1561	0.263
375.3637	0.2531
375.5713	0.2612
375.7789	0.2592
375.9864	0.2596
376.194	0.2664
376.4015	0.2656
376.609	0.2649
376.8165	0.265
377.024	0.2632
377.2315	0.2716
377.4389	0.2612
377.6464	0.272
377.8538	0.2655
378.0612	0.2716
378.2686	0.2616
378.476	0.2736
378.6834	0.2756
378.8908	0.2768
379.0981	0.2669
379.3055	0.2823
379.5128	0.2641
379.7201	0.2761
379.9274	0.2783
380.1347	0.2667
380.342	0.2821
380.5492	0.2722
380.7565	0.2759
380.9637	0.2762
381.1709	0.2786
381.3781	0.2851
381.5853	0.2807
381.7925	0.2807
381.9997	0.2888
382.2068	0.2825
382.4139	0.2794
382.6211	0.2872
382.8282	0.289
383.0353	0.2872
383.2424	0.2835
383.4494	0.281
383.6565	0.2845
383.8635	0.2824
384.0706	0.2882
384.2776	0.2927
384.4846	0.2948
384.6916	0.287
384.8986	0.2837
385.1055	0.2895
385.3125	0.2867
385.5194	0.2943
385.7263	0.2839
385.9333	0.292
386.1402	0.2885
386.347	0.287
386.5539	0.298
386.7608	0.2855
386.9676	0.293
387.1744	0.2869
387.3813	0.2887
387.5881	0.2764
387.7948	0.2961
388.0016	0.2971
388.2084	0.2902
388.4151	0.29
388.6219	0.2816
388.8286	0.2839
389.0353	0.2887
389.242	0.2935
389.4487	0.2936
389.6553	0.2703
389.862	0.2779
390.0686	0.2784
390.2753	0.2845
390.4819	0.2857
390.6885	0.2826
390.8951	0.279
391.1016	0.2869
391.3082	0.2833
391.5147	0.2669
391.7213	0.2659
391.9278	0.2673
392.1343	0.2791
392.3408	0.2767
392.5473	0.2732
392.7537	0.2713
392.9602	0.2579
393.1666	0.2647
393.373	0.2607
393.5794	0.2612
393.7858	0.2705
393.9922	0.2594
394.1986	0.2569
394.4049	0.2668
394.6113	0.2615
394.8176	0.2653
395.0239	0.2554
395.2302	0.2626
395.4365	0.2636
395.6428	0.2573
395.8491	0.2555
396.0553	0.2518
396.2615	0.2581
396.4678	0.2604
396.674	0.2435
396.8802	0.253
397.0863	0.2489
397.2925	0.2631
397.4987	0.2396
397.7048	0.2501
397.9109	0.2448
398.117	0.2508
398.3231	0.2428
398.5292	0.2341
398.7353	0.2451
398.9413	0.2452
399.1474	0.2436
399.3534	0.2478
399.5594	0.2441
399.7654	0.2412
399.9714	0.2424
400.1774	0.2493
400.3833	0.2447
400.5893	0.2526
400.7952	0.2525
401.0011	0.242
401.207	0.2461
401.4129	0.2436
401.6188	0.2388
401.8247	0.2549
402.0305	0.2338
402.2364	0.2472
402.4422	0.2434
402.648	0.2485
402.8538	0.244
403.0596	0.2428
403.2654	0.2471
403.4711	0.2467
403.6768	0.2316
403.8826	0.2458
404.0883	0.2374
404.294	0.2501
404.4997	0.2538
404.7054	0.2426
404.911	0.2434
405.1167	0.2498
405.3223	0.2353
405.5279	0.2402
405.7335	0.2485
405.9391	0.2358
406.1447	0.2451
406.3502	0.24
406.5558	0.2442
406.7613	0.2391
406.9668	0.2359
407.1724	0.2434
407.3778	0.2403
407.5833	0.2415
407.7888	0.2484
407.9942	0.2386
408.1997	0.2332
408.4051	0.2464
408.6105	0.2446
408.8159	0.2374
409.0213	0.2464
409.2267	0.2503
409.432	0.2409
409.6374	0.2359
409.8427	0.2386
410.048	0.2466
410.2533	0.2519
410.4586	0.2318
410.6639	0.2391
410.8691	0.2308
411.0744	0.2368
411.2796	0.2427
411.4848	0.2466
411.69	0.2324
411.8952	0.2454
412.1004	0.2318
412.3056	0.2302
412.5107	0.2489
412.7158	0.2463
412.921	0.2485
413.1261	0.2498
413.3312	0.2398
413.5362	0.2522
413.7413	0.2472
413.9464	0.2251
414.1514	0.2505
414.3564	0.2417
414.5614	0.2384
414.7664	0.2298
414.9714	0.2359
415.1764	0.2435
415.3813	0.2315
415.5863	0.241
415.7912	0.2315
415.9961	0.2392
416.201	0.2463
416.4059	0.2407
416.6108	0.238
416.8156	0.2304
417.0205	0.2356
417.2253	0.2357
417.4301	0.2326
417.6349	0.2394
417.8397	0.2332
418.0445	0.2335
418.2492	0.2303
418.454	0.2331
418.6587	0.2421
418.8634	0.226
419.0681	0.2303
419.2728	0.2352
419.4775	0.2436
419.6822	0.2257
419.8868	0.2323
420.0915	0.2219
420.2961	0.2291
420.5007	0.2306
420.7053	0.2375
420.9099	0.2252
421.1144	0.2324
421.319	0.2266
421.5235	0.2218
421.728	0.2308
421.9325	0.2268
422.137	0.2186
422.3415	0.221
422.546	0.2158
422.7504	0.2123
422.9549	0.2237
423.1593	0.2184
423.3637	0.2205
423.5681	0.2205
423.7725	0.2142
423.9769	0.2169
424.1812	0.2104
424.3856	0.2105
424.5899	0.2073
424.7942	0.2111
424.9985	0.2166
425.2028	0.216
425.4071	0.2163
425.6113	0.2074
425.8156	0.2055
426.0198	0.2044
426.224	0.206
426.4282	0.2
426.6324	0.1959
426.8366	0.196
427.0407	0.2009
427.2449	0.2089
427.449	0.2004
427.6531	0.2116
427.8572	0.1915
428.0613	0.1952
428.2654	0.2003
428.4694	0.1845
428.6735	0.1831
428.8775	0.1857
429.0815	0.1897
429.2855	0.185
429.4895	0.1883
429.6935	0.1919
429.8975	0.1769
430.1014	0.1812
430.3053	0.1905
430.5093	0.1772
430.7132	0.1734
430.9171	0.177
431.1209	0.1791
431.3248	0.1684
431.5286	0.1701
431.7325	0.1776
431.9363	0.1634
432.1401	0.1611
432.3439	0.1735
432.5477	0.1542
432.7514	0.1605
432.9552	0.1595
433.1589	0.1639
433.3627	0.1608
433.5664	0.1557
433.7701	0.1609
433.9737	0.1609
434.1774	0.1525
434.3811	0.1456
434.5847	0.1509
434.7883	0.1486
434.9919	0.1442
435.1955	0.1411
435.3991	0.137
435.6027	0.1365
435.8062	0.1559
436.0098	0.1377
436.2133	0.1395
436.4168	0.1296
436.6203	0.131
436.8238	0.1313
437.0272	0.1348
437.2307	0.1308
437.4341	0.1266
437.6375	0.1326
437.841	0.1172
438.0443	0.1175
438.2477	0.1109
438.4511	0.1133
438.6545	0.1185
438.8578	0.1103
439.0611	0.12
439.2644	0.1153
439.4677	0.1056
439.671	0.101
439.8743	0.107
440.0775	0.0982
440.2808	0.1028
440.484	0.0988
440.6872	0.1037
440.8904	0.0944
441.0936	0.0962
441.2967	0.0881
441.4999	0.0888
441.703	0.0855
441.9062	0.0967
442.1093	0.1005
442.3124	0.0925
442.5155	0.0926
442.7185	0.0808
442.9216	0.082
443.1246	0.0878
443.3276	0.085
443.5307	0.0786
443.7337	0.0812
443.9366	0.0789
444.1396	0.0723
444.3426	0.076
444.5455	0.0758
444.7484	0.0679
444.9513	0.0718
445.1542	0.0752
445.3571	0.0668
445.56	0.0691
445.7628	0.0699
445.9657	0.073
446.1685	0.0719
446.3713	0.0733
446.5741	0.0596
446.7769	0.072
446.9797	0.0642
447.1824	0.0571
447.3852	0.0521
447.5879	0.0645
447.7906	0.0542
447.9933	0.0547
448.196	0.051
448.3986	0.054
448.6013	0.0465
448.8039	0.0546
449.0066	0.0615
449.2092	0.0517
449.4118	0.0537
449.6143	0.0583
449.8169	0.0519
450.0195	0.0449
450.222	0.048
450.4245	0.0503
450.627	0.0511
450.8295	0.0497
451.032	0.0458
451.2345	0.042
451.4369	0.0401
451.6394	0.0404
451.8418	0.0415
452.0442	0.0447
452.2466	0.0375
452.449	0.0424
452.6513	0.0323
452.8537	0.0207
453.056	0.0306
453.2583	0.0387
453.4607	0.028
453.663	0.0291
453.8652	0.024
454.0675	0.0368
454.2697	0.0391
454.472	0.0213
454.6742	0.0241
454.8764	0.0364
455.0786	0.0332
455.2808	0.0233
455.4829	0.0294
455.6851	0.028
455.8872	0.0241
456.0893	0.0187
456.2915	0.0188
456.4935	0.028
456.6956	0.0211
456.8977	0.0275
457.0997	0.0251
457.3018	0.019
457.5038	0.0259
457.7058	0.0254
457.9078	0.021
458.1098	0.0308
458.3117	0.0335
458.5137	0.0106
458.7156	0.0204
458.9175	0.0206
459.1194	0.0237
459.3213	0.0127
459.5232	0.0188
459.725	0.0173
459.9269	0.0251
460.1287	0.0153
460.3305	0.0215
460.5323	0.017
460.7341	0.0213
460.9359	0.0139
461.1376	0.0254
461.3394	0.0236
461.5411	0.0215
461.7428	0.0078
461.9445	0.0087
462.1462	0.0118
462.3479	0.0079
462.5495	0.023
462.7512	0.0241
462.9528	0.0186
463.1544	0.0118
463.356	0.0143
463.5576	0.0212
463.7592	0.022
463.9607	0.0147
464.1623	0.0006
464.3638	0.0019
464.5653	0.0106
464.7668	0.0128
464.9683	0.0115
465.1697	0.0094
465.3712	0.0109
465.5726	0.0099
465.7741	0.0098
465.9755	0.0143
466.1769	0.0047
466.3782	0.0116
466.5796	0.0115
466.7809	0.0145
466.9823	0.0056
467.1836	0.0028
467.3849	0.0101
467.5862	-0.0028
467.7875	0.0026
467.9887	0.0151
468.19	0.013
468.3912	0.0185
468.5924	0.0021
468.7936	0.0131
468.9948	0.0031
469.196	0.0071
469.3972	0.0059
469.5983	0.0094
469.7994	0.0077
470.0006	0.0144
470.2017	0.0156
470.4027	0.0282
470.6038	0.0065
470.8049	0.0128
471.0059	0.0103
471.2069	0.0143
471.408	0.017
471.6089	0.0119
471.8099	0.0086
472.0109	0.0106
472.2119	0.0199
472.4128	0.0004
472.6137	0.0093
472.8146	-0
473.0155	0.0133
473.2164	0.0091
473.4173	0.0016
473.6181	0.0033
473.819	0.0147
474.0198	0.0042
474.2206	0.0041
474.4214	0.0128
474.6222	-0.0072
474.8229	0.0062
475.0237	0.0115
475.2244	0.0102
475.4251	0.0048
475.6258	-0.0013
475.8265	0.0051
476.0272	-0.0012
476.2278	0.0133
476.4285	0.0121
476.6291	0.0071
476.8297	0.0059
477.0303	-0.007
477.2309	0.0079
477.4315	0.005
477.632	0.0049
477.8326	0.0081
478.0331	0.008
478.2336	0.0042
478.4341	0.0055
478.6346	0.0097
478.8351	0.0035
479.0355	0.0117
479.236	0.0058
479.4364	0.0056
479.6368	0.0016
479.8372	0.0016
480.0376	0.0043
480.2379	0.0053
480.4383	0.0097
480.6386	0.0024
480.8389	0.0045
481.0392	0.0065
481.2395	0.0085
481.4398	0.0077
481.6401	0.0068
481.8403	-0.0019
482.0405	0.01
482.2408	0.0022
482.441	0.0084
482.6411	0.0094
482.8413	0.0001
483.0415	0.0146
483.2416	0.0043
483.4417	0.0011
483.6419	0.0014
483.8419	0.0058
484.042	0.0055
484.2421	-0.0007
484.4422	0.0027
484.6422	0.0071
484.8422	0.0034
485.0422	0.0041
485.2422	0.0063
485.4422	0.0034
485.6422	0.0023
485.8421	0.0014
486.042	0.0123
486.242	0.0022
486.4419	0.009
486.6417	0.0024
486.8416	0.007
487.0415	0.0014
487.2413	-0.0006
487.4411	0.0085
487.641	0.0024
487.8408	0.006
488.0405	0.0082
488.2403	0.0013
488.4401	0.0094
488.6398	0.0152
488.8395	0.0117
489.0392	0.0042
489.2389	0.0086
489.4386	-0.0048
489.6383	0.0072
489.8379	-0.0006
490.0376	0.0137
490.2372	0.0082
490.4368	-0
490.6364	-0.0046
490.836	0.0036
491.0355	-0.0012
491.2351	0.0044
491.4346	0.0041
491.6341	0.0056
491.8336	0.0059
492.0331	0.0031
492.2326	0.006
492.432	0.0043
492.6315	0.0121
492.8309	0.0048
493.0303	0.0103
493.2297	0.0084
493.4291	0.0006
493.6284	0.0061
493.8278	-0.0012
494.0271	0.0031
494.2264	0.0018
494.4257	0.0096
494.625	0.0073
494.8243	0.0027
495.0236	0.0045
495.2228	0.0136
495.422	0.0055
495.6213	0.0062
495.8205	0.0095
496.0196	0.0044
496.2188	0.0078
496.418	-0.0031
496.6171	-0.0013
496.8162	0.0031
497.0153	0.0075
497.2144	0.0025
497.4135	0.0047
497.6126	0.0018
497.8116	0.0013
498.0107	0.0123
498.2097	0.0111
498.4087	0.0007
498.6077	0.0011
498.8067	0.0105
499.0056	0.0063
499.2046	0.0103
499.4035	0.0053
499.6024	-0.0006
499.8013	0.0108
500.0002	0.0045
500.199	0.0148
500.3979	0.0033
500.5967	0.0064
500.7956	0.0043
500.9944	0.0046
501.1932	0.0088
501.3919	0.0129
501.5907	0.0062
501.7895	-0.0013
501.9882	0.0086
502.1869	0.0133
502.3856	0.0005
502.5843	0.0064
502.783	0.0029
502.9816	0.0081
503.1803	0.0056
503.3789	0.0072
503.5775	0.0081
503.7761	0.0044
503.9747	0.0061
504.1732	-0.0041
504.3718	0.0186
504.5703	-0.0007
504.7689	0.0029
504.9674	0.0019
505.1658	0.0051
505.3643	0.009
505.5628	0.0105
505.7612	0.011
505.9597	-0.0032
506.1581	0.0025
506.3565	0.0051
506.5549	0.0008
506.7532	-0.003
506.9516	0.0072
507.1499	0.0096
507.3482	0.0024
507.5465	0.0069
507.7448	0.0082
507.9431	0.0085
508.1414	0.0062
508.3396	0.0109
508.5379	0.0015
508.7361	0.0003
508.9343	0.0053
509.1325	0.007
509.3306	-0.0005
509.5288	-0.0021
509.7269	0.0087
509.9251	0.0139
510.1232	0.0076
510.3213	0.0114
510.5193	0.0022
510.7174	0.0011
510.9154	0.0045
511.1135	0.0041
511.3115	0.0047
511.5095	0.0063
511.7075	0.0093
511.9055	0.0026
512.1034	0.0015
512.3014	0.0087
512.4993	0.0135
512.6972	0.0024
512.8951	0.0023
513.093	0.0005
513.2908	0.0195
513.4887	0.0033
513.6865	0.0017
513.8844	0.007
514.0822	0.0044
514.2799	-0.0056
514.4777	-0.0106
514.6755	0.0054
514.8732	0.0058
515.0709	0.005
515.2687	0.0072
515.4664	0.0129
515.664	0.0119
515.8617	0.018
516.0594	0.0113
516.257	0.0136
516.4546	0.0155
516.6522	0.0094
516.8498	0.0051
517.0474	0.0092
517.2449	0.0055
517.4425	0.0139
517.64	0.0069
517.8375	0.0166
518.035	-0.0014
518.2325	-0.0023
518.43	0.0068
518.6274	0.0015
518.8249	-0.0093
519.0223	0.004
519.2197	0.0028
519.4171	-0.0085
519.6145	0.0065
519.8118	-0.0058
520.0092	0.0045
520.2065	0.0139
520.4038	-0.0008
520.6011	0.0074
520.7984	0.0056
520.9956	0.0066
521.1929	0.0033
521.3901	0.003
521.5874	0.0076
521.7846	-0.0088
521.9818	0.0017
522.1789	0.0079
522.3761	0.0146
522.5732	0.009
522.7704	0.0037
522.9675	0.0007
523.1646	0.0014
523.3617	0.0148
523.5587	0.0019
523.7558	0.0093
523.9528	0.0082
524.1498	0.0055
524.3468	0.003
524.5438	0.0009
524.7408	-0.0059
524.9378	0.0049
525.1347	0.0115
525.3316	0.0051
525.5285	0.009
525.7254	0.0146
525.9223	0.0108
526.1192	0.0091
526.316	0.0038
526.5129	0.0007
526.7097	0.0073
526.9065	0.0172
527.1033	0.006
527.3	0.0037
527.4968	0.0115
527.6935	-0.0021
527.8903	0.0088
528.087	0.0001
528.2837	0.016
528.4804	0.0106
528.677	0.0013
528.8737	0.0138
529.0703	-0.0014
529.2669	0.0064
529.4635	-0.0005
529.6601	-0.0052
529.8567	-0.0006
530.0532	0.0071
530.2498	0.0038
530.4463	-0.0071
530.6428	0.0055
530.8393	0.0217
531.0358	-0.0009
531.2322	-0.0089
531.4287	0.0129
531.6251	-0.004
531.8215	-0.0007
532.0179	0.0027
532.2143	0.0103
532.4107	0.0133
532.607	0.0011
532.8034	0.0059
532.9997	-0.0076
533.196	-0.0002
533.3923	0.012
533.5886	0.0075
533.7848	0.003
533.9811	0.0026
534.1773	0.0126
534.3735	0.0049
534.5697	-0.0005
534.7659	0.014
534.9621	0.0069
535.1582	0.0099
535.3544	0.0095
535.5505	0.0055
535.7466	0.0059
535.9427	-0.0005
536.1387	-0.0007
536.3348	0.0061
536.5308	0.0136
536.7269	-0.0028
536.9229	-0.0001
537.1189	0.0129
537.3148	0.0099
537.5108	-0.0013
537.7068	0.0124
537.9027	-0.0066
538.0986	0.0069
538.2945	-0.0008
538.4904	-0.0028
538.6863	0.0101
538.8821	0.0176
539.078	0.009
539.2738	0.0027
539.4696	-0.0015
539.6654	0.0062
539.8611	0.0102
540.0569	0.0059
540.2526	0.0036
540.4484	-0.0068
540.6441	0.0065
540.8398	0.0115
541.0355	0.0016
541.2311	0.0109
541.4268	0.0151
541.6224	0.0077
541.818	0.0136
542.0136	0.0134
542.2092	0.0087
542.4048	0.0131
542.6003	0.005
542.7959	0.0128
542.9914	0.0058
543.1869	0.0033
543.3824	0.0037
543.5779	0.0116
543.7734	0.0217
543.9688	0.0059
544.1642	0.0004
544.3596	0.0059
544.555	0.008
544.7504	0.0075
544.9458	0.0075
545.1411	0.0055
545.3365	0.0042
545.5318	0.0079
545.7271	0.0086
545.9224	0.0041
546.1177	0.008
546.3129	0.0004
546.5081	0.0072
546.7034	0.0095
546.8986	0.0033
547.0938	0.0149
547.289	0.0109
547.4841	0.0108
547.6793	0.0077
547.8744	0.0096
548.0695	-0.004
548.2646	0.0122
548.4597	0.0099
548.6548	0.0148
548.8498	0.0145
549.0448	0.009
549.2399	0.009
549.4349	0.0101
549.6298	0.0067
549.8248	-0.0041
550.0198	0.0096
550.2147	0.011
550.4096	-0.0047
550.6045	0.0001
550.7994	0.0029
550.9943	0.0015
551.1892	-0.0083
551.384	0.0043
551.5788	0.0059
551.7737	0.0017
551.9685	0.0125
552.1632	-0.0015
552.358	0.0005
552.5528	0.0101
552.7475	-0.001
552.9422	-0.0009
553.1369	0.0149
553.3316	0.008
553.5263	0.0076
553.7209	0.0051
553.9156	-0.0007
554.1102	0.0123
554.3048	-0.006
554.4994	0.0061
554.694	0.0094
554.8885	0.0061
555.0831	0.0142
555.2776	0.004
555.4721	0.0072
555.6666	0.0065
555.8611	0.0112
556.0555	0.0051
556.25	0.0048
556.4444	0.0015
556.6388	0.0056
556.8332	-0.0048
557.0276	0.007
557.222	-0.0034
557.4163	0.0122
557.6107	0.0084
557.805	-0.0024
557.9993	0.0062
558.1936	0.0018
558.3879	0.013
558.5821	-0.0027
558.7764	-0.0125
558.9706	0.0034
559.1648	0.0012
559.359	-0.0008
559.5532	0.0073
559.7473	0.0028
559.9415	0.0017
560.1356	0.0093
560.3297	-0.0036
560.5238	0.012
560.7179	0.0042
560.9119	0.0039
561.106	-0.0071
561.3	0.0068
561.494	-0.0022
561.688	-0.001
561.882	0.0033
562.076	0.005
562.2699	0.011
562.4639	0.0109
562.6578	0.0007
562.8517	0.0035
563.0456	0.003
563.2395	0.0065
563.4333	0.0113
563.6272	0.0103
563.821	0.0025
564.0148	-0.0017
564.2086	0.0032
564.4024	0.0131
564.5961	0.0076
564.7899	0.0178
564.9836	0.0012
565.1773	0.0094
565.371	0.0094
565.5647	0.0065
565.7584	0.0045
565.952	0.0061
566.1456	-0.0025
566.3393	0.0026
566.5329	0.0018
566.7264	0.0087
566.92	0.0026
567.1136	-0.0007
567.3071	-0.0066
567.5006	0.0011
567.6941	0.0062
567.8876	0.0015
568.0811	0.0151
568.2745	-0.0014
568.468	0.0063
568.6614	0.0079
568.8548	0.0089
569.0482	0.012
569.2416	0.0057
569.4349	0.0036
569.6283	0.0035
569.8216	0.0081
570.0149	0.0029
570.2082	0.0082
570.4015	0.0058
570.5947	0.0019
570.788	0.0029
570.9812	0.0029
571.1744	0.0059
571.3676	0.0106
571.5608	0.0013
571.754	0.0095
571.9471	0.0126
572.1402	0.0084
572.3333	0.0085
572.5264	0.0065
572.7195	0.0018
572.9126	0.0024
573.1057	0.0035
573.2987	0.0048
573.4917	0.0062
573.6847	0.003
573.8777	0.0066
574.0707	0.0056
574.2636	-0.0009
574.4566	0.0003
574.6495	0.0041
574.8424	0.0078
575.0353	0.0064
575.2281	0.007
575.421	-0.0027
575.6138	0.0011
575.8067	0.0061
575.9995	0.0044
576.1923	0.0058
576.385	0.0043
576.5778	0.0106
576.7706	0.0038
576.9633	0.0069
577.156	-0.0033
577.3487	0.004
577.5414	0.0003
577.734	0.0075
577.9267	0.0093
578.1193	0.0108
578.3119	0.0047
578.5045	0.0039
578.6971	0.0011
578.8897	0.0004
579.0822	0.007
579.2747	0.0019
579.4673	0.0086
579.6598	0.0068
579.8522	0.0059
580.0447	0.0056
580.2372	0.0087
580.4296	0.0068
580.622	0.006
580.8144	0.0036
581.0068	0.0058
581.1992	0.004
581.3915	0.0001
581.5839	0.0035
581.7762	0.005
581.9685	0.0052
582.1608	0.0037
582.353	0.0054
582.5453	0.007
582.7375	0.0064
582.9298	0.0017
583.122	0.0036
583.3142	0.0083
583.5063	0.005
583.6985	0.0057
583.8906	0.0052
584.0827	0.0065
584.2749	0.0032
584.4669	0.0021
584.659	0.0043
584.8511	0.0055
585.0431	0.0069
585.2352	0.0041
585.4272	0.0082
585.6192	0.0071
585.8111	0.006
586.0031	0.0046
586.195	0.001
586.387	0.0034
586.5789	0.0112
586.7708	0.01
586.9627	0.008
587.1545	0.0038
587.3464	0.0037
587.5382	0.0045
587.73	0.0093
587.9218	0.0011
588.1136	0.0017
588.3053	0.0042
588.4971	0.0047
588.6888	-0.0019
588.8805	0.0013
589.0722	0.0123
589.2639	0.0057
589.4556	0.0084
589.6472	0.0101
589.8389	0.0047
590.0305	0.0069
590.2221	0.0073
590.4137	0.0022
590.6052	0.0015
590.7968	0.0106
590.9883	0.0088
591.1798	0.0061
591.3713	-0.001
591.5628	0.0061
591.7543	0.0061
591.9458	-0.0007
592.1372	0.0067
592.3286	0.0043
592.52	0.0034
592.7114	0.0056
592.9028	0.0085
593.0941	0.0031
593.2855	0.0058
593.4768	0.0096
593.6681	0.0055
593.8594	0.0118
594.0506	0.0023
594.2419	0.005
594.4331	0.0059
594.6244	0.002
594.8156	0.0016
595.0067	0.002
595.1979	0.003
595.3891	0.0046
595.5802	0.0067
595.7713	-0.0002
595.9624	0.0012
596.1535	0.0057
596.3446	-0.0032
596.5357	0.0076
596.7267	-0.0024
596.9177	0.0054
597.1087	0.0041
597.2997	0.0054
597.4907	0.0006
597.6817	0.0041
597.8726	0.0001
598.0635	0.0026
598.2544	0.0086
598.4453	0.0049
598.6362	0.0025
598.827	0.0024
599.0179	0.0064
599.2087	0.0093
599.3995	0.0032
599.5903	0.0075
599.7811	0.0085
599.9718	0.0013
600.1626	0.0014
600.3533	0.0024
600.544	0.0059
600.7347	0.0034
600.9254	0.0123
601.116	0.0075
601.3067	0.0032
601.4973	0.0103
601.6879	0.0046
601.8785	0.0125
602.0691	0.0032
602.2596	0.0081
602.4502	0.0061
602.6407	0.0038
602.8312	0.0061
603.0217	0.0095
603.2122	0.0064
603.4027	0.0061
603.5931	0.0036
603.7835	0.0073
603.9739	0.0017
604.1643	0.0039
604.3547	0.0092
604.5451	0.0055
604.7354	0.0046
604.9257	-0.0004
605.116	-0.0003
605.3063	0.0048
605.4966	-0.0041
605.6869	0.0092
605.8771	0.0082
606.0673	0.0058
606.2575	0.0055
606.4477	0.0101
606.6379	0.002
606.8281	0.0043
607.0182	0.0015
607.2083	0.0049
607.3985	0.0044
607.5885	0.0028
607.7786	0.0048
607.9687	0.0049
608.1587	0.0109
608.3488	0.0061
608.5388	-0.0021
608.7288	-0.0048
608.9187	-0.0018
609.1087	0.0081
609.2986	0.0078
609.4886	0.0033
609.6785	0.0024
609.8684	-0.0031
610.0582	-0.0005
610.2481	-0.005
610.4379	0.0074
610.6278	0.0044
610.8176	0.013
611.0074	0.0038
611.1971	0.0029
611.3869	-0.0006
611.5766	-0.0028
611.7664	0.0079
611.9561	0.0042
612.1458	0.005
612.3354	0.0075
612.5251	0.0047
612.7147	0.0115
612.9044	-0.0002
613.094	0.0115
613.2836	0.0103
613.4731	0.0071
613.6627	0.0051
613.8522	0.0024
614.0417	0.0092
614.2313	0.006
614.4207	0.0019
614.6102	0.0052
614.7997	0.0115
614.9891	0.0062
615.1785	-0.0017
615.3679	0.0033
615.5573	0.0088
615.7467	-0.0017
615.9361	0.0082
616.1254	0.0127
616.3147	0.0033
616.504	0.0062
616.6933	0.0075
616.8826	-0.0023
617.0718	0.0083
617.2611	0.0006
617.4503	0.0022
617.6395	0.0041
617.8287	0.0078
618.0179	0.0037
618.207	0.0156
618.3961	0.0023
618.5853	0.0093
618.7744	0.0068
618.9634	0.0136
619.1525	0.001
619.3416	-0.0008
619.5306	0.0042
619.7196	0.0054
619.9086	0.0015
620.0976	-0.0041
620.2866	0.0081
620.4755	0.0027
620.6645	0.013
620.8534	0.0051
621.0423	0.0084
621.2312	0.0007
621.42	0.0039
621.6089	-0.0077
621.7977	0.0105
621.9865	0.0011
622.1753	-0.0111
622.3641	-0.0037
622.5529	0.0013
622.7416	0.0024
622.9303	-0.0018
623.1191	0.0065
623.3078	0.0039
623.4964	0.0067
623.6851	0.0042
623.8737	-0.0055
624.0624	-0.0064
624.251	0.0032
624.4396	0.0111
624.6282	0.0164
624.8167	0.004
625.0053	0.0093
625.1938	0.0047
625.3823	0.0072
625.5708	-0.0017
625.7593	-0.0014
625.9477	0.0074
626.1362	-0.0046
626.3246	0.0074
626.513	0.0035
626.7014	0.0082
626.8898	0.0093
627.0781	-0.0022
627.2665	0.011
627.4548	0.0036
627.6431	0.017
627.8314	0.0133
628.0197	0.0108
628.2079	0.0024
628.3962	0.0047
628.5844	-0.0004
628.7726	0.0022
628.9608	0.0046
629.1489	-0.0026
629.3371	-0.0008
629.5252	0.0083
629.7134	-0.001
629.9015	0.0022
630.0895	-0.0148
630.2776	0.0037
630.4657	0.0073
630.6537	0.0011
630.8417	0.0002
631.0297	0.0009
631.2177	0.0116
631.4057	0.0028
631.5936	-0.0093
631.7815	0.0056
631.9695	0.0202
632.1574	0.0125
632.3452	0.0095
632.5331	0.0135
632.7209	0.0059
632.9088	0.0149
633.0966	0.0179
633.2844	-0.0039
633.4722	0.0084
633.6599	0.0145
633.8477	0.0044
634.0354	0.0037
634.2231	-0.0215
634.4108	0.0017
634.5985	0.0187
634.7861	0.0071
634.9738	-0.0001
635.1614	0.0063
635.349	-0.0001
635.5366	0.0179
635.7242	0.0007
635.9117	0.0152
636.0993	0.0117
636.2868	-0.0058
636.4743	0.014
636.6618	-0.0199
636.8492	0.0092
637.0367	-0.0034
637.2241	0.0086
637.4115	0.0313
637.5989	-0.0045
637.7863	0.0123
637.9737	0.0059
638.161	-0.0042
638.3484	-0.0116
638.5357	0.0066
638.723	0.0198
638.9103	-0.0044
639.0975	0.0182
639.2848	0.0111
639.472	0.0187
639.6592	-0.0117
639.8464	-0.0124
640.0336	0.0009
640.2208	-0.0067
640.4079	-0.0059
640.595	-0.0072
640.7821	0.011
640.9692	-0.0093
641.1563	0.0105
641.3434	0.0132
641.5304	0.0069
641.7174	0.0117
641.9044	0.0041
642.0914	0.0072
642.2784	-0.005
642.4653	0.0013
642.6523	-0.0123
642.8392	-0.0132
643.0261	0.0099
643.213	-0.0023
643.3999	0.0096
643.5867	-0.0051
643.7735	0.007
643.9604	0.0295
644.1472	-0.0064
644.3339	-0.0008
644.5207	0.0041
644.7075	0.0047
644.8942	-0.0103
645.0809	0.003
645.2676	-0.0066
645.4543	-0.0054
645.6409	0.007
645.8276	0.014
646.0142	0.0072
646.2008	0.0141
646.3874	-0.0012
646.574	0.0147
646.7605	0.0079
646.9471	-0.0124
647.1336	-0.0421
647.3201	0.0101
647.5066	0.012
647.6931	-0.0039
647.8795	0.002
648.0659	-0.0136
648.2524	0.0034
648.4388	0.002
648.6252	0.0176
648.8115	0.0043
648.9979	0.0173
649.1842	0.0092
649.3705	0.025
649.5568	-0.0206
649.7431	0.0004
649.9294	-0.0153
650.1156	0.0011
650.3018	0.0112
650.488	0.0057
650.6742	0.0108
650.8604	0.0112
651.0466	-0.0245
651.2327	0.007
651.4188	0.0134
651.6049	0.0138
651.791	0.002
651.9771	0.0249
652.1632	0.0047
652.3492	0.0013
652.5352	0.0098
652.7212	0.0054
652.9072	-0.0113
653.0932	0.0088
653.2791	0.0162
653.465	0.0246
653.651	0.0123
653.8369	-0.004
654.0227	-0.0108
654.2086	0.0087
654.3944	0.0131
654.5803	0.0052
654.7661	-0.006
654.9519	0.0003
655.1377	0.0001
655.3234	0.0001
655.5092	0.0001
655.6949	0.0001
655.8806	0.0001
656.0663	0.0001
656.2519	0.0001
656.4376	0.0001
656.6232	0.0001
656.8088	0.0001
656.9945	0.0001
657.18	0.0001
657.3656	0.0001
657.5511	0.0001
657.7367	0.0001
657.9222	0.0001
658.1077	0.0001
658.2932	0.0001
658.4786	0.0001
658.6641	0.0001
658.8495	0.0001
659.0349	0.0001
659.2203	0.0001
659.4057	0.0001
659.591	0.1437
659.7764	0.0111
659.9617	-0.0013
660.147	-0.0118
660.3323	-0.001
660.5176	0.0089
660.7028	-0.0129
660.888	-0.0003
661.0733	0.0148
661.2585	-0.0101
661.4436	0.009
661.6288	0.0076
661.8139	-0.0006
661.9991	-0.0218
662.1842	-0.0061
662.3693	-0.0011
662.5544	0.0118
662.7394	-0.0006
662.9245	0.0121
663.1095	0.0056
663.2945	-0.0255
663.4795	0.0046
663.6644	0.002
663.8494	0.0193
664.0343	0.01
664.2193	-0.0084
664.4042	0.0101
664.589	0.0121
664.7739	0.0007
664.9587	-0.0021
665.1436	-0.0236
665.3284	0.0047
665.5132	-0.0409
665.698	0.0048
665.8827	-0.0092
666.0675	-0.0007
666.2522	0.0115
666.4369	-0.0079
666.6216	0.0164
666.8063	-0.0065
666.9909	0.0129
667.1756	-0.0018
667.3602	-0.0043
667.5448	0.0222
667.7294	0.0175
667.9139	-0.0029
668.0985	0.0207
668.283	0.0033
668.4675	0.0181
668.652	0.0136
668.8365	0.0083
669.0209	0.0288
669.2054	-0.0132
669.3898	0.0075
669.5742	0.0059
669.7586	0.0173
669.943	0.0079
670.1273	0.0018
670.3117	0.0126
670.496	0.0041
670.6803	0.0203
670.8646	-0.011
671.0488	0.0162
671.2331	0.0041
671.4173	0.0056
671.6015	0.0046
671.7857	0.0041
671.9699	0.0127
672.1541	-0.008
672.3382	-0.0066
672.5223	0.0115
672.7064	0.0052
672.8905	-0.0093
673.0746	0.0022
673.2587	0.027
673.4427	0.0002
673.6267	0.0111
673.8107	0.0013
673.9947	0.0057
674.1787	-0.0013
674.3626	0.0178
674.5465	0.0318
674.7304	0.0117
674.9143	-0.0036
675.0982	-0.0029
675.2821	0.0148
675.4659	-0.0194
675.6497	-0.0079
675.8335	0.0011
676.0173	-0.0101
676.2011	0.012
676.3849	0.0157
676.5686	-0.0049
676.7523	0.0122
676.936	0.0044
677.1197	-0.0192
677.3034	0.0288
677.487	-0.0001
677.6706	0.0153
677.8542	0.0042
678.0378	0.0011
678.2214	0.0123
678.405	0.0011
678.5885	0.0019
678.772	-0.0031
678.9555	0.006
679.139	0.0165
679.3225	-0.0029
679.5059	-0.0145
679.6894	0.0065
679.8728	-0.0023
680.0562	0.0079
680.2395	0.0035
680.4229	0.0067
680.6062	0.0046
680.7896	-0.0081
680.9729	0.0165
681.1562	0.0112
681.3394	0.0097
681.5227	0.0144
681.7059	0.0002
681.8891	0.0023
682.0723	-0.0016
682.2555	-0.0047
682.4387	-0.0078
682.6218	0.0082
682.805	0.0112
682.9881	0.0124
683.1712	0.01
683.3542	0.0115
683.5373	-0.0088
683.7203	0.0089
683.9034	0.003
684.0864	-0.0074
684.2694	-0.0022
684.4523	0.0065
684.6353	-0.001
684.8182	-0.0079
685.0011	0.0215
685.184	0.0036
685.3669	0.0234
685.5498	-0.022
685.7326	-0.0204
685.9154	0.0011
686.0982	0.0157
686.281	-0.0053
686.4638	-0.0086
686.6465	-0.0036
686.8293	-0.0017
687.012	0.0098
687.1947	0.0014
687.3774	0.0184
687.56	-0.0092
687.7427	0.0168
687.9253	-0.0142
688.1079	-0.0036
688.2905	0.0063
688.4731	0.018
688.6556	0.0024
688.8382	-0.0307
689.0207	0.0017
689.2032	0.0193
689.3857	0.0074
689.5681	0.0043
689.7506	0.0209
689.933	0.0042
690.1154	0.0187
690.2978	-0.014
690.4802	0.0328
690.6626	-0.0035
690.8449	0.0045
691.0272	-0.0114
691.2095	-0.0151
691.3918	-0.0083
691.5741	0.0099
691.7563	-0.001
691.9386	0.02
692.1208	0.0068
692.303	-0.0164
692.4852	0.003
692.6673	-0.0008
692.8495	0.0113
693.0316	0.0138
693.2137	0.0096
693.3958	0.0012
693.5778	0.0157
693.7599	-0.0188
693.9419	0.0198
694.1239	-0.0072
694.3059	-0.0001
694.4879	-0.0054
694.6699	-0.0035
694.8518	0.0171
695.0337	0.0032
695.2157	0.0259
695.3975	-0.0133
695.5794	-0.0243
695.7613	-0.0064
695.9431	-0.0272
696.1249	0.0132
696.3067	0.0084
696.4885	0.0106
696.6703	0.007
696.852	-0.0072
697.0337	0.0096
697.2154	0.0026
697.3971	0.0045
697.5788	0.0191
697.7605	-0.0058
697.9421	0.0136
698.1237	-0.0021
698.3053	-0.0043
698.4869	-0.0103
698.6685	0.0056
698.85	0.0159
699.0315	-0.0029
699.213	0.0076
699.3945	-0.0164
699.576	0.0168
699.7575	-0.0041
699.9389	0.0097
700.1203	0.0075
700.3017	-0.0056
700.4831	0.0404
700.6645	0.0124
700.8458	0.003
701.0271	0.0374
701.2084	0.0038
701.3897	0.0256
701.571	0.0037
701.7523	0.0121
701.9335	0.0087
702.1147	0.0076
702.2959	-0.0139
702.4771	0.0053
702.6583	-0.0011
702.8394	-0.0209
703.0205	0.0153
703.2016	-0.0177
703.3827	-0.0226
703.5638	0.0176
703.7449	0.037
703.9259	-0.0066
704.1069	-0.0001
704.2879	-0.0159
704.4689	0.0016
704.6499	-0.0154
704.8308	-0.0093
705.0117	-0.0017
705.1927	0.0236
705.3735	-0.0064
705.5544	0.0286
705.7353	-0.0031
705.9161	-0.0159
706.0969	0.0075
706.2777	0.0098
706.4585	-0.001
706.6393	0.0215
706.82	0.0098
707.0007	-0.004
707.1815	0.0085
707.3621	0.0322
707.5428	0.0235
707.7235	-0.0084
707.9041	0.0072
708.0847	0.0094
708.2653	0.0128
708.4459	0.0035
708.6265	-0.0107
708.807	0.01
708.9875	-0.0019
709.168	-0.004
709.3485	0.0227
709.529	0.0024
709.7095	-0.0268
709.8899	0.0019
710.0703	0.0131
710.2507	0.0144
710.4311	-0.0204
710.6115	0.0192
710.7918	0.0078
710.9721	-0.0084
711.1524	0.0081
711.3327	0.0046
711.513	-0.0041
711.6932	-0.0031
711.8735	0.0075
712.0537	0.0064
712.2339	-0.0013
712.4141	0.0036
712.5942	0.0021
712.7744	0.0229
712.9545	0.0218
713.1346	0.0101
713.3147	0.0061
713.4947	-0.0067
713.6748	-0.0046
713.8548	0.0292
714.0348	0.0126
714.2148	0.0311
714.3948	0.0019
714.5748	0.0084
714.7547	0.014
714.9346	0.0174
715.1145	-0.0154
715.2944	-0.0281
715.4743	-0.0001
715.6541	-0.0065
715.834	0.0355
716.0138	-0.0151
716.1936	-0.0002
716.3733	-0.0007
716.5531	-0.0087
716.7328	0.0056
716.9126	0.0136
717.0923	-0.0186
717.2719	-0.0179
717.4516	0.0107
717.6312	-0.0119
717.8109	0.0185
717.9905	-0.006
718.1701	0.0062
718.3496	-0.0223
718.5292	0.0044
718.7087	0.0158
718.8882	0.0094
719.0677	0.0006
719.2472	-0.0073
719.4267	-0.0229
719.6061	0.0007
719.7856	0.0383
719.965	0.0214
720.1443	0.0082
720.3237	-0.008
720.5031	0.0083
720.6824	0.0071
720.8617	-0.0177
721.041	0.0189
721.2203	-0.0172
721.3995	-0.0092
721.5788	-0.0083
721.758	-0.0047
721.9372	0.0007
722.1164	0.0116
722.2956	-0.0093
722.4747	0.0003
722.6538	-0.0119
722.8329	0.0301
723.012	-0.0052
723.1911	-0.0151
723.3702	0.0307
723.5492	-0.0128
723.7282	-0.0199
723.9072	0.0339
724.0862	0.0021
724.2652	-0.0182
724.4441	-0.0009
724.623	-0.0039
724.8019	0.0063
724.9808	0.0057
725.1597	0.0019
725.3385	0.0046
725.5174	0.0053
725.6962	0.0006
725.875	0.0174
726.0538	0.0027
726.2325	0.0315
726.4112	-0.0101
726.59	-0.0009
726.7687	-0.0191
726.9474	-0.0195
727.126	0.0317
727.3047	-0.0122
727.4833	0.0215
727.6619	-0.0026
727.8405	-0.0149
728.0191	0.0244
728.1976	0.0049
728.3762	0.0239
728.5547	-0.0077
728.7332	0.0243
728.9116	0.0029
729.0901	0.0107
729.2686	-0.002
729.447	-0.0092
729.6254	-0.007
729.8038	-0.0137
729.9821	-0.0263
730.1605	0.0073
730.3388	0.0054
730.5171	0.017
730.6954	-0.0263
730.8737	0.0204
731.0519	0.0037
731.2302	0.0125
731.4084	-0.0053
731.5866	-0.0143
731.7648	0.0154
731.9429	-0.0118
732.1211	0.0062
732.2992	-0.0027
732.4773	0.005
732.6554	-0.0088
732.8335	0.0413
733.0115	0.0125
733.1896	0.0023
733.3676	-0.0001
733.5456	-0.0042
733.7235	-0.0149
733.9015	0.0036
734.0794	-0.0207
734.2574	-0.0155
734.4353	0.014
734.6131	0.0035
734.791	-0.007
734.9689	-0.0187
735.1467	-0.0015
735.3245	0.0072
735.5023	0.0128
735.68	0.0073
735.8578	0.0064
736.0355	-0.003
736.2132	0.0015
736.3909	-0.0134
736.5686	-0.0076
736.7463	-0.0388
736.9239	0.0103
737.1015	0.004
737.2791	0.0076
737.4567	-0.0103
737.6343	-0.0138
737.8118	0.0256
737.9894	-0.0139
738.1669	0.0029
738.3444	0.0071
738.5218	-0.0203
738.6993	0.0245
738.8767	-0.0175
739.0541	-0.0075
739.2315	-0.0033
739.4089	0.0205
739.5863	-0.0051
739.7636	-0.016
739.9409	-0.0023
740.1182	-0.0081
740.2955	0.0201
740.4728	-0.0347
740.65	0.0107
740.8272	-0.0002
741.0044	-0.0085
741.1816	0.0465
741.3588	-0.0202
741.5359	-0.0173
741.7131	0.0074
741.8902	0.0044
742.0673	-0.0001
742.2444	0.0021
742.4214	0.018
742.5985	-0.0201
742.7755	-0.022
742.9525	-0.0176
743.1295	-0.0294
743.3064	0.0112
743.4834	-0.0177
743.6603	0.0302
743.8372	-0.0398
744.0141	0.0311
744.191	0.0442
744.3678	-0.0326
744.5446	-0.0002
744.7215	0.0138
744.8982	0.0021
745.075	0.0655
745.2518	-0.0038
745.4285	0.0196
745.6052	-0.0395
745.7819	-0.0098
745.9586	0.0039
746.1353	-0.0047
746.3119	0.0113
746.4885	0.0345
746.6651	-0.0019
746.8417	-0.0018
747.0183	0.0244
747.1948	-0.0142
747.3714	0.0041
747.5479	0.0034
747.7244	-0.0075
747.9008	-0.015
748.0773	0.0323
748.2537	0.0219
748.4301	0.0232
748.6065	-0.0174
748.7829	-0.01
748.9593	0.0006
749.1356	-0.0046
749.3119	0.0154
749.4882	0.0173
749.6645	0.0044
749.8408	0.0176
750.017	0.0008
750.1933	-0.0111
750.3695	0.0051
750.5457	-0.0157
750.7218	-0.0157
750.898	0.017
751.0741	-0.0148
751.2502	0.0102
751.4263	-0.0032
751.6024	0.0005
751.7784	-0.0015
751.9545	-0.0175
752.1305	-0.0113
752.3065	0.038
752.4825	0.017
752.6584	0.0178
752.8344	0.0183
753.0103	-0.0044
753.1862	0.0069
753.3621	-0.0034
753.5379	-0.0034
753.7138	-0.0199
753.8896	0.0145
754.0654	0.0035
754.2412	0.0255
754.417	0.0311
754.5927	0.0092
754.7685	0.0193
754.9442	0.0191
755.1199	0.0216
755.2956	0.0174
755.4712	-0.0104
755.6469	-0.0112
755.8225	0.001
755.9981	0.0077
756.1736	-0.0001
756.3492	-0.0049
756.5248	0.0065
756.7003	-0.0047
756.8758	-0.0001
757.0513	-0.0019
757.2267	0.0001
757.4022	-0.0079
757.5776	0.0015
757.753	-0.0024
757.9284	0.0014
758.1038	0.0076
758.2791	0.0086
758.4545	0.0031
758.6298	0.0113
758.8051	0.0272
758.9803	0.0105
759.1556	-0.0082
759.3308	-0.0008
759.506	0.0152
759.6812	-0.0035
759.8564	-0.004
760.0316	-0.0084
760.2067	0.02
760.3819	-0.0023
760.557	-0.0131
760.732	0.0049
760.9071	0.0166
761.0821	-0.0121
761.2572	-0.005
761.4322	-0.0033
761.6072	0.0243
761.7821	-0.0335
761.9571	0.0234
762.132	-0.0144
762.3069	0.0096
762.4818	0.0225
762.6567	-0.0099
762.8316	0.0143
763.0064	0.0162
763.1812	0.0196
763.356	-0.024
763.5308	0.0152
763.7055	-0.0154
763.8803	-0.0243
764.055	-0.0001
764.2297	-0.0252
764.4044	0.0026
764.579	0.0013
764.7537	0.0053
764.9283	0.0111
765.1029	0.0191
765.2775	0.0038
765.4521	0.0084
765.6266	0.0049
765.8011	0.0002
765.9756	0.005
766.1501	-0.0195
766.3246	0.0279
766.4991	0.0416
766.6735	0.028
766.8479	0.0353
767.0223	0.0233
767.1967	-0.027
767.371	0.0102
767.5454	0.0012
767.7197	0.0438
767.894	0.0047
768.0683	0.0152
768.2425	0.0131
768.4168	0.0066
768.591	0.0152
768.7652	-0.0146
768.9394	-0.0294
769.1135	-0.0414
769.2877	0.0003
769.4618	0.0301
769.6359	-0.0149
769.81	0.0106
769.984	0.0094
770.1581	-0.0116
770.3321	0.01
770.5061	-0.0295
770.6801	0.0006
770.8541	0.01
771.028	0.0297
771.202	0.0357
771.3759	-0.0253
771.5498	-0.0051
771.7236	-0.0081
771.8975	0.0104
772.0713	-0.0181
772.2451	-0.0257
772.4189	-0.0026
772.5927	-0.0328
772.7665	-0.0002
772.9402	-0.0007
773.1139	-0.0089
773.2876	-0.0216
773.4613	0.0078
773.635	0.0589
773.8086	0.0072
773.9822	0.0289
774.1558	0.0465
774.3294	-0.0016
774.503	-0.0198
774.6765	0.0264
774.8501	-0.0176
775.0236	0.0425
775.1971	-0.0138
775.3705	-0.001
775.544	-0.0386
775.7174	-0.0116
775.8908	0.0267
776.0642	0.0286
776.2376	0.0254
776.4109	0.0172
776.5843	-0.0107
776.7576	0.01
776.9309	0.0167
777.1041	0.0051
777.2774	-0.0221
777.4506	-0.0162
777.6238	-0.0081
777.797	-0.0023
777.9702	0.024
778.1434	-0.0178
778.3165	-0.0311
778.4896	-0.0162
778.6627	0.0137
778.8358	-0.0211
779.0089	-0.0314
779.1819	-0.0165
779.3549	-0.0013
779.5279	-0.0527
779.7009	0.0239
779.8739	0.0584
780.0468	-0.0236
780.2197	0.0024
780.3926	-0.0378
780.5655	0.0044
780.7384	0.0113
780.9112	0.0309
781.0841	0.0231
781.2569	0.0225
781.4297	-0.0184
781.6024	-0.0074
781.7752	0.0398
781.9479	0.0321
782.1206	-0.0059
782.2933	-0.0086
782.466	0.0211
782.6386	-0.0008
782.8113	-0.0331
782.9839	-0.0043
783.1565	-0.019
783.329	0.008
783.5016	-0.0081
783.6741	0.016
783.8466	0.0505
784.0191	0.0158
784.1916	-0.0564
784.3641	-0.0524
784.5365	0.0121
784.7089	0.015
784.8813	0.1184
785.0537	0.0376
785.2261	-0.0364
785.3984	0.006
785.5707	-0.0017
785.743	0.035
785.9153	-0.0083
786.0876	-0.0167
786.2598	0.005
786.432	0.0149
786.6042	0.0576
786.7764	-0.0113
786.9486	-0.0424
787.1207	0.0298
787.2928	0.0115
787.4649	-0.0022
787.637	-0.0107
787.8091	-0.0008
787.9811	0.0087
788.1532	-0.0311
788.3252	-0.0245
788.4972	-0.0024
788.6691	0.0434
788.8411	0.0089
789.013	-0.0021
789.1849	0.0098
789.3568	-0.0057
789.5287	0.0482
789.7005	0.0112
789.8723	-0.0096
790.0442	-0.0198
790.2159	0.0241
790.3877	-0.0038
790.5595	0.0308
790.7312	0.035
790.9029	0.0196
791.0746	0.0313
791.2463	0.0223
791.4179	0.0359
791.5896	0.0409
791.7612	0.0516
791.9328	0.0046
792.1044	0.0135
792.2759	-0.0268
792.4474	0.0553
792.619	0.0552
792.7905	-0.0083
792.9619	0.0241
793.1334	0.0367
793.3048	0.0229
793.4762	0.0347
793.6476	-0.0359
793.819	0.016
793.9904	-0.0312
794.1617	-0.01
794.333	0.0004
794.5043	0.0085
794.6756	-0.0166
794.8469	0.0122
795.0181	0.0042
795.1893	0.0099
795.3605	0.0578
795.5317	-0.005
795.7029	0.0108
795.874	-0.0168
796.0452	0.0301
796.2163	0.1087
796.3873	0.0946
796.5584	-0.0178
796.7294	-0.0293
796.9005	0.0361
797.0715	-0.086
797.2425	-0.0192
797.4134	0.0466
797.5844	0.0058
797.7553	-0.0356
797.9262	0.054
798.0971	0.033
798.2679	-0.01
798.4388	0.0935
798.6096	-0.0281
798.7804	0.0094
798.9512	0.0248
799.122	-0.0265
799.2927	0.0772
799.4635	-0.0415
799.6342	-0.067
799.8049	0.0238
799.9755	-0.007
800.1462	0.0516
800.3168	-0.0004
800.4874	-0.0612
800.658	0.0492
800.8286	0.0573
800.9991	-0.0293
801.1696	0.0406
801.3402	-0.0027
801.5106	-0.0446
801.6811	-0.0041
801.8516	0.1037
802.022	-0.0099
802.1924	-0.0626
802.3628	0.0624
802.5332	0.0834
802.7035	0.0357
802.8739	-0.0006
803.0442	-0.0679
803.2145	0.0127
803.3847	0.0383
803.555	0.0127
803.7252	-0.0428
803.8954	-0.0486
804.0656	0.0357
804.2358	-0.0024
804.4059	0.0735
804.5761	-0.01
804.7462	-0.0525
804.9163	0.0106
805.0864	-0.0498
805.2564	-0.0137
805.4264	-0.0604
805.5965	-0.0047
805.7665	0.0229
805.9364	-0.0639
806.1064	0.0261
806.2763	0.0549
806.4462	-0.0219
806.6161	0.0176
806.786	-0.0265
806.9559	-0.0003
807.1257	0.0099
807.2955	-0.0015
807.4653	0.0408
807.6351	0.0611
807.8048	0.0233
807.9746	0.0046
808.1443	0.0119
808.314	0.096
808.4837	0.0427
808.6533	0.0875
808.8229	0.0509
808.9926	0.0261
809.1622	0.0625
809.3317	-0.0569
809.5013	-0.0042
809.6708	0.1506
809.8403	0.0527
810.0098	0.003
810.1793	-0.0131
810.3488	0.1031
810.5182	0.0838
810.6876	-0.0341
810.857	0.0458
811.0264	-0.0058
811.1958	0.1901
811.3651	-0.0078
811.5344	0.0202
811.7037	-0.0167
811.873	0.1006
812.0422	-0.0531
812.2115	0.011
812.3807	-0.1341
812.5499	0.0398
812.7191	0.007
812.8882	-0.0456
813.0574	0.0546
813.2265	0.0359
813.3956	0.0141
813.5646	0.042
813.7337	0.0252
813.9027	-0.1262
814.0718	0.0486
814.2407	-0.0255
814.4097	0.0879
814.5787	0.1031
814.7476	0.0113
814.9165	0.0665
815.0854	-0.0386
815.2543	-0.0146
815.4232	0.1023
815.592	-0.0033
815.7608	-0.1959
815.9296	-0.0009
816.0984	0.1286
816.2671	-0.1591
816.4359	0.1109
816.6046	0.0082
816.7733	-0.0113
816.942	-0.044
817.1106	0.0962
817.2793	-0.0939
817.4479	-0.0214
817.6165	0.0857
817.785	-0.0206
817.9536	-0.1456
818.1221	-0.0602
818.2906	-0.0486
818.4591	-0.0052
818.6276	0.0649
818.7961	0.0086
818.9645	0.0649
819.1329	0.0966
819.3013	0.0675
819.4697	0.0148
819.638	0.1466
819.8064	0.0088
819.9747	0.1058
820.143	-0.1614
820.3113	0.0084
820.4795	0.0794
820.6477	0.0798
820.816	0.0807
820.9842	0.0391
821.1523	0.1212
821.3205	0.0373
821.4886	-0.0342
821.6567	-0.0398
821.8248	0.1313
821.9929	-0.1722
822.1609	0.0125
822.329	-0.0767
822.497	-0.0646
822.665	-0.0722
822.833	0.072
823.0009	0.0241
823.1688	0.2335
823.3367	-0.2183
823.5046	0.1502
823.6725	-0.0203
823.8404	-0.0248
824.0082	0.1579
824.176	-0.0916
824.3438	0.0517
824.5116	0.0391
824.6793	0.0697
824.847	0.2013
825.0147	0.4106
825.1824	0.0269
825.3501	-0.026
825.5177	0.0389
825.6854	-0.1341
825.853	-0.0974
826.0206	-0.106
826.1881	0.0135
826.3557	-0.0219
826.5232	0.1443
826.6907	0.0516
826.8582	-0.014
827.0257	0.2422
827.1931	0.1334
827.3605	-0.0811
827.528	-0.012
827.6953	-0.1977
827.8627	-0.0843
828.03	0.0249
828.1974	0.0125
828.3647	0.1022
828.532	-0.0955
828.6992	0.0313
828.8665	0.0419
829.0337	0.0948
829.2009	-0.0459
829.3681	-0.0166
829.5352	-0.2509
829.7024	-0.0807
829.8695	-0.0125
830.0366	0.052
830.2037	0.1794
830.3707	0.099
830.5378	0.1636
830.7048	-0.1391
830.8718	0.1222
831.0388	-0.0611
831.2057	0.2356
831.3727	-0.2992
831.5396	0.197
831.7065	-0.8519
831.8734	0.1189
832.0402	0.3429
832.2071	1.1016
832.3739	0.0078
832.5407	-1.7243
832.7075	0.1718
832.8742	-0.0257
833.041	0.1845
833.2077	0.0285
833.3744	0.1894
833.541	0.1392
833.7077	-0.0321
833.8743	0.1293
834.0409	0.0647
834.2075	0.0481
834.3741	-0.0551
834.5407	-0.1521
834.7072	0.3931
834.8737	0.343
835.0402	0.1658
835.2067	0.2994
835.3731	0.1006
835.5395	0.0138
835.706	-0.1025
835.8723	-0.0413
836.0387	0.0235
836.2051	0.1986
836.3714	-0.009
836.5377	-0.1919
836.704	0.2251
836.8703	-0.0521
837.0365	0.1882
837.2027	-0.197
837.3689	0.3771
837.5351	0.4557
837.7013	-0.1797
837.8674	0.0761
838.0335	0.0475
838.1997	-0
838.3657	-0
838.5318	0.0617
838.6978	-0.0817
838.8639	0.0408
839.0299	0.1139
839.1958	0.1911
839.3618	0.083
839.5277	0.269
839.6937	-0.0964
839.8596	0.2296
840.0254	0.0143
840.1913	-0.2988
840.3571	0.411
840.523	-0
840.6888	-0.0316
840.8545	-0.4034
841.0203	0.037
841.186	0.0783
841.3517	-0.0471
841.5174	0.2549
841.6831	-0.0022
841.8488	0.2666
842.0144	-0.2016
842.18	0.4625
842.3456	-0.6238
842.5112	-0
842.6767	0.4416
842.8422	0.0605
843.0077	0.1414
843.1732	-0.2169
843.3387	0.6731
843.5042	0.6698
843.6696	-0.2333
843.835	-0.0513
844.0004	-0.0034
844.1657	-0
844.3311	-0.2038
844.4964	0.3407
844.6617	0.0683
844.827	0.0442
844.9923	0.2998
845.1575	-0.1274
845.3227	-0.0795
845.4879	-0.0552
845.6531	-0.0778
845.8183	0.8376
845.9834	-0.0325
846.1485	0.1374
846.3136	-0.087
846.4787	0.0129
846.6438	0.4368
846.8088	0.3401
846.9738	-0
847.1388	0.5183
847.3038	1.0978
847.4687	-0
847.6337	-0
847.7986	-0.204
847.9635	-0.0343
848.1284	-0
848.2932	0.0736
848.458	-0
848.6228	0.1021
848.7876	0.0393
848.9524	0.0949
849.1172	-1.9577
849.2819	-0
849.4466	0.6265
849.6113	0.2116
849.7759	0.083
849.9406	0.0274
850.1052	-0.5725
850.2698	0.3907
850.4344	-0.7821
850.599	-0.1017
850.7635	0.4272
850.928	0.2223
851.0925	1.4922
851.257	0.8213
851.4215	0.1068
851.5859	0.3205
851.7503	0.02
851.9147	0.5709
852.0791	0.0235
852.2434	0.0758
852.4078	-0
852.5721	0.1344
852.7364	0.1731
852.9007	-0.1237
853.0649	-0
853.2291	0.3275
853.3934	-0
853.5575	-0.1403
853.7217	1.1981
853.8859	-0
854.05	-0.4073
854.2141	0.6316
854.3782	0.0672
854.5423	0.7802
854.7063	0.4399
854.8703	-0.0453
855.0343	0.161
855.1983	-0.078
855.3623	0.0505
855.5262	-0
855.6901	0.6016
855.854	0.1599
856.0179	-0.1024
856.1818	0.4209
856.3456	1.2035
856.5094	-0
856.6732	0.0313
856.837	-1.2102
857.0008	-0
857.1645	-0
857.3282	-0.5597
857.4919	1.0533
857.6556	0.134
857.8192	-0.2997
857.9828	-0.0037
858.1465	0.3243
858.31	-0
858.4736	-0.4606
858.6372	0.9866
858.8007	0.063
858.9642	0.0594
859.1277	-0
859.2911	-0.0357
859.4546	-0
859.618	0.6179
859.7814	-0.5874
859.9448	-0
860.1081	-0
860.2715	-1.0062
860.4348	0.1125
860.5981	0.4546
860.7614	-0
860.9246	0.415
861.0879	1.1215
861.2511	-0
861.4143	-0
861.5774	0.2471
861.7406	-0
861.9037	-0.6826
862.0668	0.1963
862.2299	0.1153
862.393	0.0986
862.556	-0
862.7191	0.501
862.8821	0.2206
863.0451	0.1138
863.208	0.1034
863.371	-0.2099
863.5339	0.5436
863.6968	-0
863.8597	-0
864.0225	-0
864.1854	-0.2516
864.3482	-0
864.511	0.2148
864.6737	-0.6212
864.8365	0.3546
864.9992	-0
865.1619	-0.5921
865.3246	-2.0799
865.4873	-0
865.65	0.277
865.8126	1.5508
865.9752	-0.0394
866.1378	0.0684
866.3004	-0.4185
866.4629	-1.0062
866.6254	0.0257
866.7879	0.6218
866.9504	-0.0269
867.1129	-0.113
867.2753	-0.0919
867.4377	0.345
867.6001	-0.2534
867.7625	0.0935
867.9249	-0
868.0872	0.2543
868.2495	0.3207
868.4118	-0
868.5741	-0
868.7363	-0
868.8986	-0
869.0608	-0
869.223	-0.2078
869.3851	-0
869.5473	0.1866
869.7094	0.2893
869.8715	-0
870.0336	0.0625
870.1957	-0.374
870.3577	0.4457
870.5197	0.4127
870.6817	-0.6575
870.8437	0.1374
871.0057	0.3331
871.1676	0.5338
871.3295	-0.0953
871.4914	-1.0864
871.6533	-0.3051
871.8151	0.7222
871.977	-0.3746
872.1388	-0
872.3006	-0.1994
872.4623	-0
872.6241	-0.0919
872.7858	-0
872.9475	-0
873.1092	0.0178
873.2709	0.8192
873.4325	-2.0848
873.5941	-0.648
873.7557	-0
873.9173	-0
874.0789	0.6242
874.2404	-0
874.4019	0.6092
874.5634	-0
874.7249	-0
874.8863	-0
875.0478	0.2362
875.2092	-0
875.3706	-0.0615
875.5319	-0
875.6933	0.089
875.8546	-0
876.0159	0.2223
876.1772	-0
876.3385	-0
876.4997	0.4233
876.6609	-0
876.8221	-0
876.9833	0.1442
877.1445	0.5397
877.3056	-1.0014
877.4667	-0.8658
877.6278	0.5298
877.7889	0.0849
877.9499	0.3695
878.111	-0.5256
878.272	0.1963
878.433	-0
878.5939	0.1374
878.7549	-0
878.9158	-0
879.0767	-0
879.2376	-0.4042
879.3984	0.6566
879.5593	0.3904
879.7201	-1.1326
879.8809	-0
880.0417	-0.3825
880.2024	0.3367
880.3632	-0.382
880.5239	-0.181
880.6846	-0.1775
880.8452	0.0913
881.0059	-0
881.1665	0.1253
881.3271	0.4298
881.4877	0.0834
881.6483	-1.3124
881.8088	-0
881.9693	-0
882.1298	-0
882.2903	-0
