Data from D4ACN5uM440nmA_Absorbance_13-50-26-317.txt Node
Date: Fri Feb 21 13:50:26 GMT 2025
User: LASERRRRR
Spectrometer: FLMT03099
Trigger mode: 0
Integration Time (sec): 1.500000E-2
Scans to average: 1
Electric dark correction enabled: true
Nonlinearity correction enabled: false
Boxcar width: 0
XAxis mode: Wavelengths
Number of Pixels in Spectrum: 3648
>>>>>Begin Spectral Data<<<<<
179.3399	-0.1648
179.5586	-0.1648
179.7771	-0.1648
179.9957	-0.328
180.2143	-1.5974
180.4329	0.0244
180.6514	-0
180.8699	-0.1658
181.0885	0.1891
181.307	0.1638
181.5255	0.2876
181.744	-0
181.9625	0.3301
182.181	-0
182.3994	-0.1241
182.6179	-0
182.8363	-0
183.0547	-0.184
183.2732	-0.002
183.4916	0.1573
183.71	0.3322
183.9284	0.18
184.1467	0.479
184.3651	0.1551
184.5835	0.1603
184.8018	0.2299
185.0201	0.014
185.2385	0.1994
185.4568	0.1298
185.6751	0.1154
185.8934	0.5362
186.1117	-0.1348
186.3299	0.1457
186.5482	0.1165
186.7664	0.1822
186.9847	-0.042
187.2029	0.0711
187.4211	0.153
187.6393	0.1016
187.8575	0.2599
188.0757	0.614
188.2939	0.2516
188.512	0.3141
188.7302	0.1624
188.9483	0.13
189.1665	1.2644
189.3846	0.3056
189.6027	0.1077
189.8208	0.412
190.0389	0.2499
190.257	0.1496
190.475	0.0137
190.6931	0.3349
190.9111	0.2438
191.1292	0.0657
191.3472	0.1977
191.5652	0.7685
191.7832	0.3351
192.0012	0.2844
192.2192	0.1077
192.4371	0.2151
192.6551	0.2039
192.873	0.1545
193.091	0.2331
193.3089	0.0872
193.5268	0.3082
193.7447	0.2246
193.9626	0.306
194.1805	0.274
194.3984	0.1969
194.6162	0.3176
194.8341	0.3931
195.0519	0.307
195.2697	0.2917
195.4875	0.403
195.7054	0.3236
195.9231	0.2078
196.1409	0.4007
196.3587	0.3407
196.5765	0.3357
196.7942	0.4146
197.012	0.3447
197.2297	0.3216
197.4474	0.3852
197.6651	0.4001
197.8828	0.4069
198.1005	0.4101
198.3182	0.3927
198.5358	0.426
198.7535	0.3744
198.9711	0.3945
199.1888	0.3778
199.4064	0.4236
199.624	0.393
199.8416	0.3924
200.0592	0.4098
200.2767	0.3757
200.4943	0.4391
200.7119	0.4012
200.9294	0.4387
201.1469	0.417
201.3645	0.4568
201.582	0.3897
201.7995	0.4074
202.017	0.4431
202.2344	0.3892
202.4519	0.4345
202.6694	0.3797
202.8868	0.404
203.1042	0.3818
203.3217	0.4027
203.5391	0.381
203.7565	0.3589
203.9739	0.4108
204.1913	0.3557
204.4086	0.3686
204.626	0.3885
204.8433	0.3877
205.0607	0.3594
205.278	0.3489
205.4953	0.321
205.7126	0.3522
205.9299	0.328
206.1472	0.3116
206.3644	0.3419
206.5817	0.3222
206.7989	0.3467
207.0162	0.3078
207.2334	0.3325
207.4506	0.3019
207.6678	0.3064
207.885	0.3241
208.1022	0.292
208.3194	0.2773
208.5365	0.3098
208.7537	0.2988
208.9708	0.2817
209.1879	0.2753
209.405	0.28
209.6222	0.2708
209.8392	0.2867
210.0563	0.282
210.2734	0.2682
210.4905	0.2743
210.7075	0.2857
210.9245	0.2709
211.1416	0.2627
211.3586	0.2569
211.5756	0.2415
211.7926	0.2671
212.0096	0.2639
212.2265	0.264
212.4435	0.2582
212.6604	0.2409
212.8774	0.2367
213.0943	0.2427
213.3112	0.247
213.5281	0.2528
213.745	0.2372
213.9619	0.2504
214.1788	0.2569
214.3956	0.2524
214.6125	0.249
214.8293	0.2579
215.0461	0.2498
215.2629	0.2522
215.4798	0.2447
215.6965	0.2398
215.9133	0.2375
216.1301	0.2366
216.3469	0.23
216.5636	0.2467
216.7803	0.2332
216.9971	0.246
217.2138	0.2514
217.4305	0.2478
217.6472	0.2322
217.8639	0.2449
218.0805	0.2618
218.2972	0.2551
218.5138	0.2557
218.7305	0.2486
218.9471	0.2526
219.1637	0.2751
219.3803	0.2552
219.5969	0.254
219.8135	0.2709
220.0301	0.2541
220.2466	0.2605
220.4632	0.2473
220.6797	0.2512
220.8962	0.2596
221.1127	0.2744
221.3292	0.252
221.5457	0.2715
221.7622	0.2652
221.9787	0.2707
222.1951	0.2697
222.4116	0.2701
222.628	0.296
222.8444	0.2753
223.0608	0.2662
223.2772	0.2846
223.4936	0.2784
223.71	0.288
223.9264	0.2798
224.1427	0.2821
224.3591	0.2798
224.5754	0.2769
224.7917	0.2905
225.008	0.3009
225.2243	0.2958
225.4406	0.2908
225.6569	0.2911
225.8732	0.319
226.0894	0.3011
226.3057	0.3042
226.5219	0.3067
226.7381	0.3094
226.9543	0.3164
227.1705	0.3182
227.3867	0.31
227.6029	0.3235
227.8191	0.3439
228.0352	0.3352
228.2513	0.3442
228.4675	0.3514
228.6836	0.3337
228.8997	0.3369
229.1158	0.355
229.3319	0.3712
229.548	0.3495
229.764	0.3526
229.9801	0.3644
230.1961	0.3658
230.4121	0.3639
230.6282	0.3808
230.8442	0.3883
231.0602	0.3827
231.2761	0.388
231.4921	0.3885
231.7081	0.3953
231.924	0.4002
232.14	0.4074
232.3559	0.4081
232.5718	0.417
232.7877	0.4069
233.0036	0.4208
233.2195	0.4109
233.4353	0.4174
233.6512	0.4303
233.867	0.4248
234.0829	0.4331
234.2987	0.4219
234.5145	0.4358
234.7303	0.4391
234.9461	0.4342
235.1619	0.4412
235.3776	0.4347
235.5934	0.4289
235.8091	0.446
236.0249	0.4457
236.2406	0.4429
236.4563	0.4433
236.672	0.4419
236.8877	0.4505
237.1034	0.442
237.319	0.4394
237.5347	0.4569
237.7503	0.4407
237.966	0.4572
238.1816	0.4486
238.3972	0.4579
238.6128	0.4654
238.8284	0.4567
239.0439	0.4602
239.2595	0.4606
239.475	0.4584
239.6906	0.4617
239.9061	0.4594
240.1216	0.4591
240.3371	0.4654
240.5526	0.4647
240.7681	0.4627
240.9836	0.4639
241.199	0.4416
241.4145	0.4445
241.6299	0.4582
241.8453	0.4457
242.0607	0.4353
242.2761	0.435
242.4915	0.4364
242.7069	0.4184
242.9223	0.4237
243.1376	0.4148
243.353	0.4096
243.5683	0.3958
243.7836	0.3962
243.9989	0.381
244.2142	0.3787
244.4295	0.3785
244.6448	0.3746
244.86	0.355
245.0753	0.351
245.2905	0.3494
245.5057	0.3381
245.721	0.331
245.9362	0.3304
246.1514	0.3188
246.3665	0.3177
246.5817	0.3017
246.7969	0.2997
247.012	0.2943
247.2271	0.2888
247.4423	0.2794
247.6574	0.2854
247.8725	0.2771
248.0876	0.2735
248.3026	0.2697
248.5177	0.2537
248.7328	0.2612
248.9478	0.2463
249.1628	0.2511
249.3779	0.243
249.5929	0.2426
249.8079	0.2431
250.0228	0.2282
250.2378	0.2297
250.4528	0.2289
250.6677	0.2311
250.8827	0.2187
251.0976	0.2135
251.3125	0.2207
251.5274	0.213
251.7423	0.2067
251.9572	0.2109
252.172	0.2085
252.3869	0.2115
252.6017	0.2055
252.8166	0.2029
253.0314	0.1943
253.2462	0.1944
253.461	0.1993
253.6758	0.196
253.8906	0.1901
254.1053	0.1974
254.3201	0.1897
254.5348	0.1819
254.7496	0.1813
254.9643	0.1918
255.179	0.1923
255.3937	0.1883
255.6083	0.1893
255.823	0.1867
256.0377	0.176
256.2523	0.1874
256.467	0.1822
256.6816	0.1855
256.8962	0.1831
257.1108	0.1837
257.3254	0.181
257.54	0.1734
257.7545	0.1799
257.9691	0.1826
258.1836	0.1797
258.3981	0.1805
258.6127	0.1733
258.8272	0.182
259.0417	0.1786
259.2561	0.1713
259.4706	0.1779
259.6851	0.1793
259.8995	0.1758
260.114	0.1827
260.3284	0.1746
260.5428	0.1746
260.7572	0.1787
260.9716	0.1838
261.186	0.1785
261.4003	0.1748
261.6147	0.1757
261.829	0.1753
262.0433	0.1729
262.2577	0.1799
262.472	0.1758
262.6863	0.1815
262.9005	0.1778
263.1148	0.18
263.3291	0.1796
263.5433	0.1828
263.7576	0.1834
263.9718	0.184
264.186	0.178
264.4002	0.1865
264.6144	0.1885
264.8286	0.1847
265.0427	0.1857
265.2569	0.1846
265.471	0.1884
265.6851	0.1862
265.8993	0.1837
266.1134	0.1827
266.3275	0.1857
266.5415	0.1832
266.7556	0.184
266.9697	0.1879
267.1837	0.1881
267.3978	0.189
267.6118	0.1834
267.8258	0.1852
268.0398	0.1942
268.2538	0.189
268.4677	0.1847
268.6817	0.1875
268.8957	0.1783
269.1096	0.1739
269.3235	0.1776
269.5374	0.1882
269.7514	0.1837
269.9652	0.182
270.1791	0.1766
270.393	0.1801
270.6068	0.1821
270.8207	0.1742
271.0345	0.1787
271.2483	0.1731
271.4622	0.1804
271.676	0.1815
271.8897	0.1788
272.1035	0.1822
272.3173	0.1738
272.531	0.1788
272.7448	0.1815
272.9585	0.1767
273.1722	0.179
273.3859	0.1773
273.5996	0.1831
273.8133	0.1829
274.0269	0.1838
274.2406	0.1814
274.4542	0.1818
274.6679	0.1851
274.8815	0.1872
275.0951	0.1859
275.3087	0.1856
275.5223	0.1877
275.7358	0.1892
275.9494	0.188
276.1629	0.1903
276.3765	0.1921
276.59	0.1785
276.8035	0.1902
277.017	0.1977
277.2305	0.1917
277.444	0.189
277.6574	0.1942
277.8709	0.1931
278.0843	0.1913
278.2978	0.1998
278.5112	0.193
278.7246	0.1942
278.938	0.189
279.1513	0.1872
279.3647	0.1893
279.5781	0.1885
279.7914	0.1881
280.0047	0.1923
280.2181	0.1868
280.4314	0.1912
280.6447	0.19
280.8579	0.1838
281.0712	0.186
281.2845	0.1832
281.4977	0.1839
281.711	0.1862
281.9242	0.1864
282.1374	0.1908
282.3506	0.1873
282.5638	0.1824
282.7769	0.1836
282.9901	0.1936
283.2033	0.1877
283.4164	0.1816
283.6295	0.1832
283.8426	0.1834
284.0557	0.1878
284.2688	0.186
284.4819	0.1848
284.695	0.1855
284.908	0.1802
285.1211	0.1869
285.3341	0.1833
285.5471	0.1908
285.7601	0.1809
285.9731	0.1825
286.1861	0.1854
286.3991	0.1924
286.612	0.1834
286.825	0.1863
287.0379	0.1845
287.2508	0.1875
287.4637	0.1862
287.6766	0.1824
287.8895	0.1893
288.1024	0.1924
288.3152	0.1874
288.5281	0.1842
288.7409	0.1892
288.9538	0.1852
289.1666	0.1861
289.3794	0.18
289.5922	0.185
289.8049	0.186
290.0177	0.1868
290.2304	0.1856
290.4432	0.1934
290.6559	0.1859
290.8686	0.1855
291.0813	0.1921
291.294	0.1914
291.5067	0.1816
291.7194	0.1913
291.932	0.187
292.1447	0.1878
292.3573	0.1927
292.5699	0.189
292.7825	0.184
292.9951	0.1878
293.2077	0.183
293.4203	0.1836
293.6328	0.1835
293.8454	0.1862
294.0579	0.1822
294.2704	0.1936
294.4829	0.1877
294.6954	0.1868
294.9079	0.1871
295.1204	0.182
295.3328	0.1919
295.5453	0.1907
295.7577	0.1811
295.9701	0.1845
296.1825	0.1889
296.3949	0.1795
296.6073	0.1818
296.8197	0.1849
297.0321	0.1855
297.2444	0.1835
297.4567	0.1852
297.6691	0.186
297.8814	0.186
298.0937	0.1787
298.306	0.1881
298.5182	0.1873
298.7305	0.1888
298.9428	0.1869
299.155	0.1843
299.3672	0.1877
299.5794	0.1888
299.7916	0.1871
300.0038	0.1844
300.216	0.1853
300.4282	0.1897
300.6403	0.1925
300.8525	0.1891
301.0646	0.188
301.2767	0.1867
301.4888	0.1883
301.7009	0.1852
301.913	0.1849
302.125	0.1848
302.3371	0.1882
302.5491	0.1931
302.7612	0.1985
302.9732	0.1902
303.1852	0.1913
303.3972	0.1967
303.6092	0.1882
303.8211	0.1838
304.0331	0.1833
304.245	0.1896
304.457	0.1838
304.6689	0.186
304.8808	0.1837
305.0927	0.1858
305.3046	0.1827
305.5164	0.1808
305.7283	0.1826
305.9401	0.1663
306.152	0.1753
306.3638	0.1782
306.5756	0.183
306.7874	0.1718
306.9992	0.1706
307.2109	0.173
307.4227	0.171
307.6344	0.1709
307.8462	0.163
308.0579	0.1735
308.2696	0.1705
308.4813	0.1615
308.693	0.1627
308.9046	0.1642
309.1163	0.163
309.328	0.1591
309.5396	0.1517
309.7512	0.1572
309.9628	0.156
310.1744	0.1495
310.386	0.1509
310.5976	0.1496
310.8091	0.1531
311.0207	0.148
311.2322	0.1414
311.4437	0.1464
311.6552	0.1486
311.8667	0.1445
312.0782	0.1442
312.2897	0.1452
312.5012	0.1442
312.7126	0.1375
312.924	0.1378
313.1355	0.1424
313.3469	0.1391
313.5583	0.138
313.7696	0.1301
313.981	0.1422
314.1924	0.1357
314.4037	0.1369
314.6151	0.138
314.8264	0.1368
315.0377	0.1342
315.249	0.1348
315.4603	0.133
315.6716	0.138
315.8828	0.1338
316.0941	0.1329
316.3053	0.1303
316.5165	0.1302
316.7277	0.1258
316.9389	0.1311
317.1501	0.1277
317.3613	0.1331
317.5724	0.133
317.7836	0.1298
317.9947	0.1354
318.2058	0.1229
318.417	0.1294
318.6281	0.1266
318.8391	0.1378
319.0502	0.1348
319.2613	0.1292
319.4723	0.1222
319.6834	0.1327
319.8944	0.1272
320.1054	0.1298
320.3164	0.1269
320.5274	0.1289
320.7383	0.1324
320.9493	0.1284
321.1602	0.1295
321.3712	0.1336
321.5821	0.127
321.793	0.1341
322.0039	0.1317
322.2148	0.1336
322.4257	0.1247
322.6365	0.127
322.8474	0.1279
323.0582	0.1324
323.269	0.1316
323.4798	0.1281
323.6906	0.1261
323.9014	0.1285
324.1122	0.1323
324.3229	0.1366
324.5337	0.1256
324.7444	0.1343
324.9551	0.1317
325.1658	0.1331
325.3765	0.1335
325.5872	0.1363
325.7979	0.1367
326.0085	0.1297
326.2192	0.13
326.4298	0.1337
326.6404	0.1381
326.851	0.1343
327.0616	0.1351
327.2722	0.1354
327.4828	0.1385
327.6933	0.1474
327.9039	0.1377
328.1144	0.1355
328.3249	0.1393
328.5354	0.1377
328.7459	0.146
328.9564	0.1354
329.1669	0.1418
329.3773	0.1409
329.5878	0.1361
329.7982	0.1453
330.0086	0.1466
330.219	0.142
330.4294	0.1422
330.6398	0.1425
330.8502	0.1462
331.0605	0.1414
331.2708	0.1466
331.4812	0.1443
331.6915	0.1449
331.9018	0.1402
332.1121	0.1482
332.3224	0.1469
332.5326	0.1344
332.7429	0.1436
332.9531	0.1477
333.1633	0.1417
333.3735	0.1389
333.5837	0.1407
333.7939	0.1422
334.0041	0.1433
334.2143	0.1422
334.4244	0.1503
334.6346	0.1356
334.8447	0.1449
335.0548	0.1451
335.2649	0.1436
335.475	0.1474
335.685	0.1455
335.8951	0.1386
336.1051	0.1442
336.3152	0.1506
336.5252	0.1409
336.7352	0.1435
336.9452	0.1435
337.1552	0.1409
337.3652	0.1434
337.5751	0.142
337.7851	0.1412
337.995	0.1433
338.2049	0.1464
338.4148	0.1436
338.6247	0.1512
338.8346	0.1419
339.0445	0.1419
339.2543	0.1525
339.4642	0.1405
339.674	0.1453
339.8838	0.1439
340.0936	0.1453
340.3034	0.1416
340.5132	0.1438
340.7229	0.1492
340.9327	0.1546
341.1424	0.1574
341.3522	0.141
341.5619	0.1526
341.7716	0.1492
341.9813	0.1594
342.1909	0.1542
342.4006	0.1554
342.6102	0.1489
342.8199	0.1575
343.0295	0.1505
343.2391	0.1544
343.4487	0.1616
343.6583	0.1589
343.8679	0.153
344.0774	0.1572
344.287	0.1621
344.4965	0.1591
344.706	0.1646
344.9155	0.1616
345.125	0.1571
345.3345	0.1672
345.544	0.1619
345.7534	0.1633
345.9629	0.1699
346.1723	0.1763
346.3817	0.1686
346.5911	0.172
346.8005	0.1721
347.0099	0.1665
347.2193	0.1799
347.4286	0.1779
347.638	0.1757
347.8473	0.1715
348.0566	0.169
348.2659	0.1784
348.4752	0.1736
348.6845	0.1745
348.8937	0.1735
349.103	0.1784
349.3122	0.1753
349.5214	0.1775
349.7306	0.1854
349.9398	0.1769
350.149	0.1763
350.3582	0.1807
350.5674	0.1837
350.7765	0.1889
350.9856	0.1785
351.1948	0.1795
351.4039	0.1817
351.613	0.1836
351.822	0.1833
352.0311	0.183
352.2402	0.1801
352.4492	0.1798
352.6582	0.1862
352.8672	0.1841
353.0762	0.1815
353.2852	0.1868
353.4942	0.1874
353.7032	0.1794
353.9121	0.1849
354.1211	0.1822
354.33	0.1873
354.5389	0.1809
354.7478	0.184
354.9567	0.1846
355.1655	0.1833
355.3744	0.1837
355.5833	0.1835
355.7921	0.1914
356.0009	0.1853
356.2097	0.1821
356.4185	0.1862
356.6273	0.1886
356.8361	0.1841
357.0448	0.1823
357.2536	0.1863
357.4623	0.1848
357.671	0.185
357.8797	0.193
358.0884	0.1785
358.2971	0.188
358.5057	0.188
358.7144	0.1863
358.923	0.1921
359.1316	0.196
359.3402	0.1967
359.5488	0.1877
359.7574	0.1925
359.966	0.194
360.1746	0.191
360.3831	0.206
360.5916	0.1956
360.8002	0.2016
361.0087	0.1951
361.2172	0.2022
361.4256	0.1997
361.6341	0.2066
361.8426	0.2048
362.051	0.2031
362.2594	0.2076
362.4678	0.204
362.6762	0.2065
362.8846	0.1959
363.093	0.2087
363.3014	0.2175
363.5097	0.2051
363.718	0.2056
363.9264	0.2118
364.1347	0.2129
364.343	0.2081
364.5513	0.2127
364.7595	0.2157
364.9678	0.2096
365.176	0.2173
365.3842	0.2134
365.5925	0.2102
365.8007	0.2157
366.0089	0.2252
366.217	0.2273
366.4252	0.2302
366.6333	0.2244
366.8415	0.2285
367.0496	0.2292
367.2577	0.2291
367.4658	0.2252
367.6739	0.2198
367.882	0.2284
368.09	0.2236
368.2981	0.2237
368.5061	0.228
368.7141	0.2215
368.9221	0.2351
369.1301	0.2278
369.3381	0.2352
369.5461	0.2342
369.754	0.2324
369.962	0.2289
370.1699	0.2423
370.3778	0.2357
370.5857	0.2323
370.7936	0.2358
371.0015	0.2325
371.2093	0.2411
371.4172	0.2406
371.625	0.229
371.8328	0.2337
372.0406	0.238
372.2484	0.2379
372.4562	0.24
372.664	0.2418
372.8717	0.2381
373.0795	0.2479
373.2872	0.2542
373.4949	0.2438
373.7026	0.2505
373.9103	0.2441
374.118	0.2456
374.3256	0.2564
374.5333	0.243
374.7409	0.2411
374.9485	0.2501
375.1561	0.2566
375.3637	0.2481
375.5713	0.262
375.7789	0.2615
375.9864	0.2487
376.194	0.2603
376.4015	0.2596
376.609	0.2556
376.8165	0.2576
377.024	0.258
377.2315	0.2668
377.4389	0.2479
377.6464	0.2637
377.8538	0.2645
378.0612	0.2645
378.2686	0.2611
378.476	0.2742
378.6834	0.26
378.8908	0.2668
379.0981	0.2693
379.3055	0.272
379.5128	0.2577
379.7201	0.2691
379.9274	0.2638
380.1347	0.2674
380.342	0.2706
380.5492	0.2694
380.7565	0.2677
380.9637	0.2723
381.1709	0.267
381.3781	0.271
381.5853	0.2679
381.7925	0.2766
381.9997	0.2752
382.2068	0.2745
382.4139	0.2792
382.6211	0.2753
382.8282	0.2816
383.0353	0.2821
383.2424	0.2747
383.4494	0.2749
383.6565	0.2786
383.8635	0.2773
384.0706	0.2782
384.2776	0.2772
384.4846	0.2873
384.6916	0.2819
384.8986	0.2845
385.1055	0.2916
385.3125	0.284
385.5194	0.2808
385.7263	0.2825
385.9333	0.2851
386.1402	0.2791
386.347	0.2774
386.5539	0.2822
386.7608	0.2841
386.9676	0.2737
387.1744	0.2826
387.3813	0.2744
387.5881	0.2716
387.7948	0.2747
388.0016	0.2816
388.2084	0.2784
388.4151	0.2783
388.6219	0.2757
388.8286	0.2814
389.0353	0.2787
389.242	0.2811
389.4487	0.2715
389.6553	0.2647
389.862	0.2712
390.0686	0.277
390.2753	0.2739
390.4819	0.2726
390.6885	0.272
390.8951	0.2762
391.1016	0.2675
391.3082	0.2703
391.5147	0.2579
391.7213	0.2664
391.9278	0.2622
392.1343	0.2628
392.3408	0.2687
392.5473	0.266
392.7537	0.2644
392.9602	0.2581
393.1666	0.2588
393.373	0.2668
393.5794	0.2609
393.7858	0.2548
393.9922	0.2527
394.1986	0.2592
394.4049	0.2533
394.6113	0.253
394.8176	0.2558
395.0239	0.2536
395.2302	0.2448
395.4365	0.2519
395.6428	0.2453
395.8491	0.2396
396.0553	0.2461
396.2615	0.2439
396.4678	0.2467
396.674	0.2413
396.8802	0.2428
397.0863	0.2431
397.2925	0.2406
397.4987	0.2328
397.7048	0.2547
397.9109	0.239
398.117	0.2448
398.3231	0.2424
398.5292	0.2324
398.7353	0.2371
398.9413	0.2313
399.1474	0.2418
399.3534	0.2433
399.5594	0.2415
399.7654	0.2374
399.9714	0.2401
400.1774	0.2423
400.3833	0.2386
400.5893	0.2367
400.7952	0.2421
401.0011	0.2385
401.207	0.2354
401.4129	0.2298
401.6188	0.2275
401.8247	0.241
402.0305	0.2376
402.2364	0.2232
402.4422	0.2354
402.648	0.2364
402.8538	0.2406
403.0596	0.2336
403.2654	0.23
403.4711	0.2369
403.6768	0.2311
403.8826	0.2368
404.0883	0.2297
404.294	0.2365
404.4997	0.2319
404.7054	0.2402
404.911	0.2439
405.1167	0.2422
405.3223	0.2271
405.5279	0.238
405.7335	0.2313
405.9391	0.2295
406.1447	0.2356
406.3502	0.2365
406.5558	0.2337
406.7613	0.2368
406.9668	0.2341
407.1724	0.2312
407.3778	0.2365
407.5833	0.2368
407.7888	0.2349
407.9942	0.23
408.1997	0.2277
408.4051	0.2406
408.6105	0.236
408.8159	0.2307
409.0213	0.2431
409.2267	0.2441
409.432	0.237
409.6374	0.2352
409.8427	0.2375
410.048	0.2272
410.2533	0.2297
410.4586	0.2222
410.6639	0.2401
410.8691	0.2334
411.0744	0.2342
411.2796	0.2342
411.4848	0.2378
411.69	0.2207
411.8952	0.2395
412.1004	0.2356
412.3056	0.224
412.5107	0.2326
412.7158	0.2459
412.921	0.2278
413.1261	0.2389
413.3312	0.2399
413.5362	0.2403
413.7413	0.2313
413.9464	0.2231
414.1514	0.2239
414.3564	0.2249
414.5614	0.2247
414.7664	0.2216
414.9714	0.2245
415.1764	0.2248
415.3813	0.2207
415.5863	0.2292
415.7912	0.2215
415.9961	0.2137
416.201	0.2405
416.4059	0.237
416.6108	0.2253
416.8156	0.226
417.0205	0.2221
417.2253	0.227
417.4301	0.2326
417.6349	0.2225
417.8397	0.2234
418.0445	0.2275
418.2492	0.2274
418.454	0.2222
418.6587	0.2252
418.8634	0.2323
419.0681	0.222
419.2728	0.2189
419.4775	0.227
419.6822	0.2138
419.8868	0.2128
420.0915	0.2239
420.2961	0.2074
420.5007	0.2218
420.7053	0.2172
420.9099	0.226
421.1144	0.2078
421.319	0.2119
421.5235	0.2114
421.728	0.2171
421.9325	0.2107
422.137	0.2183
422.3415	0.2008
422.546	0.2073
422.7504	0.2147
422.9549	0.2126
423.1593	0.1962
423.3637	0.2069
423.5681	0.2145
423.7725	0.2041
423.9769	0.2197
424.1812	0.1999
424.3856	0.2033
424.5899	0.2014
424.7942	0.2
424.9985	0.2025
425.2028	0.2044
425.4071	0.2026
425.6113	0.2045
425.8156	0.1989
426.0198	0.2018
426.224	0.1922
426.4282	0.194
426.6324	0.1841
426.8366	0.1917
427.0407	0.1932
427.2449	0.1876
427.449	0.1923
427.6531	0.2042
427.8572	0.1844
428.0613	0.1969
428.2654	0.1919
428.4694	0.1838
428.6735	0.1708
428.8775	0.1901
429.0815	0.1784
429.2855	0.182
429.4895	0.1725
429.6935	0.1757
429.8975	0.1635
430.1014	0.1752
430.3053	0.1866
430.5093	0.1716
430.7132	0.1707
430.9171	0.1663
431.1209	0.1675
431.3248	0.1555
431.5286	0.1655
431.7325	0.1752
431.9363	0.1611
432.1401	0.1664
432.3439	0.1624
432.5477	0.1599
432.7514	0.1554
432.9552	0.1622
433.1589	0.1466
433.3627	0.1557
433.5664	0.1477
433.7701	0.154
433.9737	0.149
434.1774	0.1425
434.3811	0.1441
434.5847	0.1412
434.7883	0.1515
434.9919	0.1374
435.1955	0.1413
435.3991	0.1438
435.6027	0.1301
435.8062	0.1429
436.0098	0.1321
436.2133	0.1263
436.4168	0.1292
436.6203	0.1206
436.8238	0.1305
437.0272	0.1238
437.2307	0.1216
437.4341	0.1163
437.6375	0.127
437.841	0.1156
438.0443	0.1238
438.2477	0.1143
438.4511	0.1077
438.6545	0.1111
438.8578	0.1199
439.0611	0.118
439.2644	0.1187
439.4677	0.1098
439.671	0.0955
439.8743	0.1053
440.0775	0.0968
440.2808	0.1044
440.484	0.0882
440.6872	0.0978
440.8904	0.0915
441.0936	0.0978
441.2967	0.0836
441.4999	0.0839
441.703	0.0915
441.9062	0.0968
442.1093	0.0925
442.3124	0.0865
442.5155	0.0847
442.7185	0.0783
442.9216	0.0847
443.1246	0.091
443.3276	0.0785
443.5307	0.0771
443.7337	0.0819
443.9366	0.0714
444.1396	0.0739
444.3426	0.0789
444.5455	0.0712
444.7484	0.0789
444.9513	0.0762
445.1542	0.0718
445.3571	0.065
445.56	0.0612
445.7628	0.0595
445.9657	0.0667
446.1685	0.0677
446.3713	0.0689
446.5741	0.069
446.7769	0.065
446.9797	0.0689
447.1824	0.0553
447.3852	0.047
447.5879	0.0566
447.7906	0.0456
447.9933	0.0484
448.196	0.0414
448.3986	0.0534
448.6013	0.0392
448.8039	0.0555
449.0066	0.061
449.2092	0.0579
449.4118	0.0506
449.6143	0.0535
449.8169	0.0414
450.0195	0.0471
450.222	0.0416
450.4245	0.0456
450.627	0.0475
450.8295	0.0468
451.032	0.0393
451.2345	0.0402
451.4369	0.0424
451.6394	0.0428
451.8418	0.0398
452.0442	0.0412
452.2466	0.033
452.449	0.0406
452.6513	0.0272
452.8537	0.0404
453.056	0.0343
453.2583	0.0329
453.4607	0.0243
453.663	0.0277
453.8652	0.0281
454.0675	0.0364
454.2697	0.0287
454.472	0.0238
454.6742	0.0329
454.8764	0.0416
455.0786	0.0259
455.2808	0.0173
455.4829	0.0285
455.6851	0.0251
455.8872	0.0182
456.0893	0.0312
456.2915	0.0202
456.4935	0.0304
456.6956	0.0178
456.8977	0.0188
457.0997	0.0267
457.3018	0.0146
457.5038	0.026
457.7058	0.0242
457.9078	0.0233
458.1098	0.026
458.3117	0.0236
458.5137	0.0187
458.7156	0.02
458.9175	0.0267
459.1194	0.0104
459.3213	0.0172
459.5232	0.0251
459.725	0.015
459.9269	0.0184
460.1287	0.013
460.3305	0.0129
460.5323	0.0197
460.7341	0.015
460.9359	0.0094
461.1376	0.0158
461.3394	0.0236
461.5411	0.022
461.7428	0.0215
461.9445	0.0097
462.1462	0.011
462.3479	0.0075
462.5495	0.0166
462.7512	0.0153
462.9528	0.0098
463.1544	0.0186
463.356	0.006
463.5576	0.0251
463.7592	0.0151
463.9607	0.0157
464.1623	0.0106
464.3638	0.0048
464.5653	0.01
464.7668	0.0126
464.9683	0.0082
465.1697	0.0057
465.3712	-0.0048
465.5726	0.0099
465.7741	0.0179
465.9755	0.0014
466.1769	0.0087
466.3782	0.0094
466.5796	0.016
466.7809	0.0175
466.9823	0.0123
467.1836	0.013
467.3849	0.0132
467.5862	0.0032
467.7875	0.0107
467.9887	0.0161
468.19	0.007
468.3912	0.0109
468.5924	0.0029
468.7936	0.0098
468.9948	0.0057
469.196	0.0005
469.3972	0.0077
469.5983	0.0022
469.7994	0.009
470.0006	0.0069
470.2017	0.0063
470.4027	0.0187
470.6038	0.0072
470.8049	0.0046
471.0059	0.0064
471.2069	0.0158
471.408	0.0153
471.6089	0.0118
471.8099	0.0106
472.0109	0.0039
472.2119	0.0108
472.4128	0.004
472.6137	0.0019
472.8146	0.0042
473.0155	0.0156
473.2164	0.0119
473.4173	-0.008
473.6181	-0.004
473.819	0.0149
474.0198	0.01
474.2206	-0.0029
474.4214	-0.0012
474.6222	-0.0095
474.8229	-0.0005
475.0237	0.0067
475.2244	0.0075
475.4251	0.0025
475.6258	0.0042
475.8265	0.0086
476.0272	0.0078
476.2278	0.0087
476.4285	-0.0002
476.6291	0.0068
476.8297	0.0052
477.0303	-0.0052
477.2309	0.0123
477.4315	-0.0017
477.632	0.0035
477.8326	0.008
478.0331	0.0062
478.2336	0.0041
478.4341	0.0112
478.6346	0.0025
478.8351	0.0009
479.0355	0.0034
479.236	0.0143
479.4364	0.0034
479.6368	0.003
479.8372	0.0009
480.0376	-0.0012
480.2379	0.0085
480.4383	0.0086
480.6386	-0.0085
480.8389	-0.0004
481.0392	0.0063
481.2395	0.0043
481.4398	0.0068
481.6401	0.0112
481.8403	-0.0013
482.0405	0.0006
482.2408	0.0026
482.441	0.003
482.6411	0.0089
482.8413	-0.0004
483.0415	0.0064
483.2416	-0.0003
483.4417	0.0063
483.6419	-0.0051
483.8419	0.0013
484.042	-0.001
484.2421	-0.0019
484.4422	-0.0011
484.6422	0.0059
484.8422	0.0014
485.0422	0.0036
485.2422	0.0042
485.4422	0.0031
485.6422	0.004
485.8421	0.0053
486.042	0.0095
486.242	-0.0021
486.4419	0.0043
486.6417	0.0005
486.8416	0.0038
487.0415	0.0025
487.2413	0.0014
487.4411	0.0065
487.641	0.0047
487.8408	0.0107
488.0405	0.0053
488.2403	-0.0067
488.4401	-0.0064
488.6398	0.0041
488.8395	0.0118
489.0392	-0.0024
489.2389	0.0079
489.4386	-0.0049
489.6383	0.0037
489.8379	-0.0055
490.0376	0.0098
490.2372	-0.0022
490.4368	-0.0092
490.6364	0.003
490.836	0.0047
491.0355	-0.01
491.2351	-0.0036
491.4346	0.0046
491.6341	0
491.8336	-0.0015
492.0331	-0.0022
492.2326	0.0043
492.432	0.0026
492.6315	0.0035
492.8309	0.0028
493.0303	0.0084
493.2297	0.0019
493.4291	-0.0003
493.6284	0.008
493.8278	0.0001
494.0271	0.0054
494.2264	-0.0011
494.4257	0.0026
494.625	-0.0054
494.8243	-0.0077
495.0236	0.0056
495.2228	0.0049
495.422	0.0039
495.6213	0.0046
495.8205	0.0029
496.0196	0.0004
496.2188	0.0057
496.418	0.0026
496.6171	-0.0027
496.8162	0.0038
497.0153	0.0115
497.2144	0.0025
497.4135	0.0013
497.6126	-0.0037
497.8116	-0.0068
498.0107	-0.003
498.2097	0.0025
498.4087	-0.0016
498.6077	-0.0077
498.8067	0.0049
499.0056	0.0014
499.2046	-0.0014
499.4035	0.0062
499.6024	-0.0057
499.8013	0.0081
500.0002	0.0001
500.199	-0.0007
500.3979	-0.0091
500.5967	0.0006
500.7956	-0.001
500.9944	-0.002
501.1932	0.0087
501.3919	0.0016
501.5907	0.0023
501.7895	-0.0036
501.9882	-0.0093
502.1869	0.0057
502.3856	0.005
502.5843	-0.0029
502.783	-0.0013
502.9816	0.0056
503.1803	0.0118
503.3789	0.0073
503.5775	0.0034
503.7761	-0.003
503.9747	0.0048
504.1732	-0.0073
504.3718	0.0077
504.5703	-0.0018
504.7689	-0.0101
504.9674	-0.0013
505.1658	-0.0031
505.3643	0.0025
505.5628	0.0069
505.7612	0.0016
505.9597	-0.0064
506.1581	0.0004
506.3565	-0.004
506.5549	-0.0012
506.7532	-0.007
506.9516	0.0005
507.1499	0.0015
507.3482	0.0016
507.5465	0.0032
507.7448	-0.0011
507.9431	0.0067
508.1414	-0.0063
508.3396	-0.002
508.5379	-0.0032
508.7361	0.0021
508.9343	-0.0045
509.1325	0.0047
509.3306	-0.0047
509.5288	-0.0079
509.7269	0.0042
509.9251	0.0027
510.1232	0.0001
510.3213	0.0059
510.5193	-0.0021
510.7174	0.0042
510.9154	0.008
511.1135	-0.0019
511.3115	0.0032
511.5095	-0.0003
511.7075	0.0012
511.9055	-0.0056
512.1034	-0.0012
512.3014	-0.0098
512.4993	0.0001
512.6972	-0.0093
512.8951	-0.0001
513.093	0.0008
513.2908	0.0071
513.4887	0.0014
513.6865	0.0005
513.8844	-0.0003
514.0822	-0.0023
514.2799	-0.0091
514.4777	-0.0037
514.6755	-0.0011
514.8732	-0.0026
515.0709	0.0027
515.2687	-0.0045
515.4664	0.0038
515.664	0.0023
515.8617	0.0027
516.0594	-0.001
516.257	-0.0064
516.4546	0.008
516.6522	-0.0006
516.8498	-0.0014
517.0474	-0.0059
517.2449	-0.0071
517.4425	0.0029
517.64	0.0001
517.8375	0.0098
518.035	-0.0062
518.2325	-0.0097
518.43	-0.0019
518.6274	-0.0053
518.8249	-0.0008
519.0223	0.0006
519.2197	0.0078
519.4171	-0.0067
519.6145	0.0008
519.8118	-0.0087
520.0092	-0.0058
520.2065	-0.0028
520.4038	-0.0011
520.6011	0.0006
520.7984	0.0059
520.9956	-0.0047
521.1929	0.0057
521.3901	0.007
521.5874	0.0066
521.7846	-0.0072
521.9818	-0.0107
522.1789	-0.0078
522.3761	0.0145
522.5732	0.0044
522.7704	-0.0032
522.9675	-0.0084
523.1646	-0.0158
523.3617	0.002
523.5587	-0.0015
523.7558	0.0006
523.9528	0.0044
524.1498	-0.0019
524.3468	-0.0048
524.5438	0.0008
524.7408	-0.0035
524.9378	0.0055
525.1347	0
525.3316	-0.002
525.5285	-0.002
525.7254	-0.0004
525.9223	0.0041
526.1192	0.0088
526.316	-0.0006
526.5129	0.0019
526.7097	0.0008
526.9065	0
527.1033	0.0048
527.3	-0.0038
527.4968	0.0009
527.6935	-0.0002
527.8903	-0.0021
528.087	-0.0053
528.2837	0.0045
528.4804	-0.0001
528.677	-0.0012
528.8737	-0.0063
529.0703	-0.0014
529.2669	-0.0004
529.4635	-0.0112
529.6601	-0.0163
529.8567	-0.0103
530.0532	0.0007
530.2498	-0.0047
530.4463	-0.0129
530.6428	0.0044
530.8393	0.0022
531.0358	-0.0011
531.2322	-0.0109
531.4287	-0.0034
531.6251	-0.003
531.8215	-0.005
532.0179	0.0019
532.2143	0.0117
532.4107	-0.0049
532.607	-0.0025
532.8034	-0.0089
532.9997	-0.0031
533.196	-0.0046
533.3923	0.0097
533.5886	0.0038
533.7848	0.0055
533.9811	-0
534.1773	-0.004
534.3735	0.0013
534.5697	0.0015
534.7659	0.0014
534.9621	0.0105
535.1582	0.0065
535.3544	0.0001
535.5505	0.0022
535.7466	0.002
535.9427	-0.0023
536.1387	0.0029
536.3348	0.0098
536.5308	-0.0034
536.7269	-0.0066
536.9229	0.0034
537.1189	-0.004
537.3148	0.0064
537.5108	0.0051
537.7068	0.0023
537.9027	-0.0114
538.0986	0.0016
538.2945	-0.0098
538.4904	-0.0075
538.6863	-0.0013
538.8821	0.0107
539.078	0.0001
539.2738	-0.0047
539.4696	-0.0078
539.6654	0.0013
539.8611	0.0004
540.0569	0.0005
540.2526	0.0088
540.4484	0.0036
540.6441	-0.0037
540.8398	0.0029
541.0355	0.0029
541.2311	0.0041
541.4268	0.0133
541.6224	0.012
541.818	0.0036
542.0136	0.0119
542.2092	0.0041
542.4048	0.0041
542.6003	-0.0019
542.7959	0.0103
542.9914	0.006
543.1869	-0.0033
543.3824	0
543.5779	0.0093
543.7734	0.0089
543.9688	0.0036
544.1642	-0.0106
544.3596	-0.0045
544.555	-0.0021
544.7504	0.0109
544.9458	-0.0004
545.1411	-0.0008
545.3365	-0.0016
545.5318	-0.0017
545.7271	0.0073
545.9224	-0.0038
546.1177	0.0072
546.3129	-0.0055
546.5081	-0.0038
546.7034	0.0014
546.8986	-0.0023
547.0938	0.0048
547.289	0.0071
547.4841	0.007
547.6793	0.0038
547.8744	-0.0003
548.0695	-0.0043
548.2646	-0.0018
548.4597	0.0011
548.6548	0.0128
548.8498	0.0082
549.0448	-0.0059
549.2399	0.0118
549.4349	0.0018
549.6298	-0.0037
549.8248	0.0075
550.0198	0.0056
550.2147	-0.0049
550.4096	-0.0108
550.6045	-0.0017
550.7994	0.0058
550.9943	0.0033
551.1892	-0.0171
551.384	0.0102
551.5788	0.0079
551.7737	0.0074
551.9685	0.0072
552.1632	-0.0065
552.358	0.0012
552.5528	0.0033
552.7475	0.0035
552.9422	0.0067
553.1369	0.0063
553.3316	0.0047
553.5263	0.0084
553.7209	0.0065
553.9156	-0.0032
554.1102	-0.0036
554.3048	-0.0045
554.4994	0.0016
554.694	0.0043
554.8885	0.0075
555.0831	0.0091
555.2776	0.0083
555.4721	-0.0003
555.6666	0.0001
555.8611	0.0067
556.0555	0.0035
556.25	0.0123
556.4444	-0.0002
556.6388	0.0057
556.8332	0.0033
557.0276	0.0095
557.222	-0.004
557.4163	-0.0031
557.6107	-0.0044
557.805	-0.005
557.9993	-0.0009
558.1936	-0.0117
558.3879	0.0003
558.5821	0.001
558.7764	-0.0045
558.9706	-0.0146
559.1648	0.0113
559.359	0.0043
559.5532	0.0007
559.7473	-0.0079
559.9415	0.0032
560.1356	0.0108
560.3297	-0.0016
560.5238	0.0077
560.7179	-0.006
560.9119	0.0025
561.106	-0.0043
561.3	0.0035
561.494	-0.0024
561.688	0.0051
561.882	-0.0051
562.076	-0.001
562.2699	0.0197
562.4639	0.0163
562.6578	0.0068
562.8517	-0.0025
563.0456	-0.0004
563.2395	0.0104
563.4333	0.0083
563.6272	-0.0058
563.821	0.0056
564.0148	-0.0014
564.2086	0.008
564.4024	0.0137
564.5961	0.01
564.7899	0.004
564.9836	-0.0057
565.1773	0.0051
565.371	0.0038
565.5647	0.0072
565.7584	0.0027
565.952	-0.0012
566.1456	0.0094
566.3393	0.0044
566.5329	-0.0003
566.7264	0.0031
566.92	0.0026
567.1136	-0.0051
567.3071	0.0017
567.5006	0.0094
567.6941	0.0044
567.8876	-0.0011
568.0811	0.0201
568.2745	0.0038
568.468	0.001
568.6614	0.0127
568.8548	0.0034
569.0482	0.0043
569.2416	0.0045
569.4349	0.0031
569.6283	0.0019
569.8216	0.005
570.0149	0.0021
570.2082	0.0075
570.4015	0.0032
570.5947	0.0003
570.788	0.0045
570.9812	0.0012
571.1744	0.0048
571.3676	0.0065
571.5608	0.0024
571.754	0.0089
571.9471	0.0082
572.1402	-0.0001
572.3333	0.0061
572.5264	0.0028
572.7195	0.0101
572.9126	0.0004
573.1057	0.0054
573.2987	0.0029
573.4917	0.004
573.6847	0.0029
573.8777	0.0065
574.0707	0.0056
574.2636	0.0023
574.4566	-0.0014
574.6495	0.0019
574.8424	0.0099
575.0353	0.0067
575.2281	0.0075
575.421	0.0023
575.6138	0.0025
575.8067	0.0064
575.9995	0.0058
576.1923	0.0035
576.385	0.0078
576.5778	0.0093
576.7706	0.0081
576.9633	0.0036
577.156	-0.0005
577.3487	0.0042
577.5414	-0.0013
577.734	0.0026
577.9267	0.0045
578.1193	0.0062
578.3119	0.0037
578.5045	0.0064
578.6971	0.0028
578.8897	-0.0002
579.0822	0.0095
579.2747	0.0043
579.4673	0.0023
579.6598	0.007
579.8522	0.0024
580.0447	0.0083
580.2372	0.0048
580.4296	0.0086
580.622	0.0047
580.8144	0.0051
581.0068	0.004
581.1992	0.0067
581.3915	0.0002
581.5839	0.004
581.7762	0.0046
581.9685	0.0025
582.1608	0.0025
582.353	0.0012
582.5453	0.0055
582.7375	0.0038
582.9298	0.0001
583.122	0.002
583.3142	0.0058
583.5063	0.004
583.6985	0.0032
583.8906	0.0067
584.0827	0.001
584.2749	-0.0009
584.4669	0.0009
584.659	0.0066
584.8511	0.0096
585.0431	0.0044
585.2352	0.0038
585.4272	0.0043
585.6192	0.0025
585.8111	0.0017
586.0031	0.0014
586.195	-0
586.387	0.0006
586.5789	0.0038
586.7708	0.0091
586.9627	0.0071
587.1545	0.0031
587.3464	0.0061
587.5382	0.0004
587.73	0.0109
587.9218	0.002
588.1136	0.0061
588.3053	0.0062
588.4971	-0.0006
588.6888	-0.0005
588.8805	0.002
589.0722	0.0132
589.2639	0.0034
589.4556	0.0044
589.6472	0.0117
589.8389	0.0037
590.0305	0.0034
590.2221	0.0069
590.4137	-0.0017
590.6052	0.0035
590.7968	0.0078
590.9883	0.0033
591.1798	0.0068
591.3713	0.0092
591.5628	0.0066
591.7543	0.0106
591.9458	-0.0012
592.1372	0.0051
592.3286	0.0065
592.52	0.0024
592.7114	0.0041
592.9028	0.008
593.0941	0.0001
593.2855	0.0067
593.4768	0.0124
593.6681	0.0058
593.8594	0.0095
594.0506	0.0031
594.2419	0.0047
594.4331	0.0034
594.6244	-0.0014
594.8156	-0.0008
595.0067	-0.0003
595.1979	0.0008
595.3891	0.007
595.5802	0.009
595.7713	0.0031
595.9624	0.0139
596.1535	0.0053
596.3446	-0.0002
596.5357	0.0036
596.7267	0.0022
596.9177	-0.0014
597.1087	0.0042
597.2997	0.0054
597.4907	0.0013
597.6817	0.0084
597.8726	0.0085
598.0635	0.0045
598.2544	0.0119
598.4453	0.0067
598.6362	-0.0006
598.827	-0.002
599.0179	0.0018
599.2087	0.0099
599.3995	0.0015
599.5903	0.007
599.7811	0.0116
599.9718	0.0033
600.1626	0.0017
600.3533	0.0045
600.544	0.0035
600.7347	0.0045
600.9254	0.0106
601.116	0.0053
601.3067	0.0064
601.4973	0.0028
601.6879	0.0043
601.8785	0.006
602.0691	0.0054
602.2596	0.0056
602.4502	0.0089
602.6407	0.0104
602.8312	0.013
603.0217	0.0021
603.2122	0.0013
603.4027	0.001
603.5931	0.0006
603.7835	0.0015
603.9739	0.0001
604.1643	0.0068
604.3547	0.0092
604.5451	0.0129
604.7354	-0.0012
604.9257	-0.0004
605.116	0.0004
605.3063	0.0044
605.4966	-0.0014
605.6869	0.0086
605.8771	0.0067
606.0673	-0.0004
606.2575	0.005
606.4477	0.0057
606.6379	0.0019
606.8281	0.002
607.0182	-0.0005
607.2083	-0.0003
607.3985	0.0078
607.5885	0.0073
607.7786	0.0086
607.9687	0.0097
608.1587	-0.0006
608.3488	0.0004
608.5388	0.0021
608.7288	-0.0009
608.9187	0.0053
609.1087	-0.0011
609.2986	0.009
609.4886	-0.0033
609.6785	0.0065
609.8684	-0.003
610.0582	0.0003
610.2481	-0.0038
610.4379	0.0029
610.6278	0.0033
610.8176	0.0096
611.0074	0.0053
611.1971	0.0027
611.3869	-0.0011
611.5766	-0.0096
611.7664	0.0095
611.9561	0.0077
612.1458	0.007
612.3354	0.002
612.5251	0.0045
612.7147	0.0068
612.9044	0.006
613.094	0.0068
613.2836	-0
613.4731	0.0046
613.6627	0.0082
613.8522	0.0067
614.0417	0.0064
614.2313	0.0035
614.4207	0.0075
614.6102	0.0038
614.7997	0.0114
614.9891	0.0063
615.1785	0.0037
615.3679	0.0018
615.5573	0.003
615.7467	-0.0012
615.9361	0.0059
616.1254	0.0089
616.3147	0.0001
616.504	0.0068
616.6933	0.0028
616.8826	-0.0068
617.0718	0.0085
617.2611	0.0076
617.4503	-0.0009
617.6395	0.0045
617.8287	0.0105
618.0179	0.0054
618.207	0.0033
618.3961	-0.0121
618.5853	0.0086
618.7744	0.0014
618.9634	0.0081
619.1525	-0.0015
619.3416	-0.0024
619.5306	0.0094
619.7196	0.011
619.9086	0.0028
620.0976	0.0052
620.2866	0.0041
620.4755	-0.0078
620.6645	0.0142
620.8534	0.0097
621.0423	0.0052
621.2312	0.0007
621.42	0.0027
621.6089	0.0089
621.7977	0.0073
621.9865	0.0069
622.1753	-0.0093
622.3641	-0.0065
622.5529	-0.0028
622.7416	-0.0029
622.9303	-0.0039
623.1191	0.0036
623.3078	-0.0034
623.4964	0.0084
623.6851	0.0123
623.8737	-0.0021
624.0624	-0.0113
624.251	0.0091
624.4396	0.0012
624.6282	0.0127
624.8167	0.0026
625.0053	0.0157
625.1938	-0.0017
625.3823	0.0015
625.5708	0.0019
625.7593	0.0025
625.9477	0.012
626.1362	0.0027
626.3246	0.001
626.513	0.0055
626.7014	0.0118
626.8898	0.0146
627.0781	0.0035
627.2665	0.0112
627.4548	-0.0071
627.6431	0.0112
627.8314	0.0103
628.0197	0.008
628.2079	-0.0038
628.3962	0.0067
628.5844	0.0027
628.7726	0.005
628.9608	0.0127
629.1489	0.0005
629.3371	0.002
629.5252	0.0109
629.7134	-0.0053
629.9015	0.0127
630.0895	-0.0136
630.2776	0.0096
630.4657	0.0099
630.6537	0.0025
630.8417	0.0017
631.0297	0.0006
631.2177	0.0069
631.4057	0.0114
631.5936	-0.0096
631.7815	-0.0051
631.9695	0.0217
632.1574	-0.0016
632.3452	-0.0026
632.5331	-0.0058
632.7209	0.0173
632.9088	0.0012
633.0966	0.009
633.2844	-0.0109
633.4722	0.0119
633.6599	0.0127
633.8477	0.0023
634.0354	0.0207
634.2231	-0.0136
634.4108	0.0034
634.5985	0.0147
634.7861	-0.0027
634.9738	-0.01
635.1614	0.005
635.349	0.0011
635.5366	-0.0004
635.7242	0.0077
635.9117	0.0083
636.0993	0.0049
636.2868	0.0001
636.4743	0.0096
636.6618	-0.0208
636.8492	0.0153
637.0367	-0.0022
637.2241	0.0038
637.4115	0.0203
637.5989	-0.0077
637.7863	0.0276
637.9737	0.0042
638.161	0.0122
638.3484	-0.0203
638.5357	0.0002
638.723	0.0113
638.9103	-0.0102
639.0975	0.0055
639.2848	0.0046
639.472	-0.0042
639.6592	-0.0132
639.8464	0.0026
640.0336	-0.0033
640.2208	-0.0128
640.4079	-0.0132
640.595	-0.0183
640.7821	0.0164
640.9692	-0.0105
641.1563	0.0123
641.3434	0.0119
641.5304	0.0073
641.7174	0.0219
641.9044	-0.0018
642.0914	0.0105
642.2784	0.0049
642.4653	-0.014
642.6523	0.0038
642.8392	-0.0126
643.0261	0.0221
643.213	0.0174
643.3999	0.006
643.5867	0.0112
643.7735	0.0016
643.9604	0.0273
644.1472	0.0001
644.3339	-0.0038
644.5207	-0.0055
644.7075	0.0098
644.8942	0.0013
645.0809	0.0113
645.2676	-0.0013
645.4543	0.0023
645.6409	0.0257
645.8276	-0.0042
646.0142	0.0094
646.2008	-0.001
646.3874	-0.0188
646.574	-0.01
646.7605	0.0024
646.9471	0.0024
647.1336	-0.0091
647.3201	-0.0134
647.5066	0.0138
647.6931	0.0102
647.8795	0.0044
648.0659	0.0154
648.2524	0.0079
648.4388	-0.0031
648.6252	0.0043
648.8115	0.0058
648.9979	0.0148
649.1842	0.0101
649.3705	0.0211
649.5568	-0.0083
649.7431	-0.0155
649.9294	-0.0111
650.1156	-0.0011
650.3018	0.0207
650.488	0.0148
650.6742	0.0202
650.8604	0.0076
651.0466	-0.0095
651.2327	-0.0043
651.4188	0.0088
651.6049	0.0229
651.791	-0.0136
651.9771	0.009
652.1632	0.013
652.3492	-0.003
652.5352	0.0184
652.7212	-0.0067
652.9072	-0.009
653.0932	-0.0009
653.2791	0.0081
653.465	0.0189
653.651	0.0022
653.8369	0.0233
654.0227	-0.0075
654.2086	0.0064
654.3944	0.0063
654.5803	-0.0013
654.7661	0.0071
654.9519	0.0011
655.1377	0.0002
655.3234	0.0002
655.5092	0.0002
655.6949	0.0002
655.8806	0.0002
656.0663	0.0002
656.2519	0.0002
656.4376	0.0002
656.6232	0.0002
656.8088	0.0002
656.9945	0.0002
657.18	0.0002
657.3656	0.0002
657.5511	0.0002
657.7367	0.0002
657.9222	0.0002
658.1077	0.0002
658.2932	0.0002
658.4786	0.0002
658.6641	0.0002
658.8495	0.0002
659.0349	0.0002
659.2203	0.0002
659.4057	0.0002
659.591	0.1467
659.7764	0.019
659.9617	0.0189
660.147	0.0054
660.3323	0.0036
660.5176	0.0029
660.7028	-0.0197
660.888	0.0098
661.0733	0.0124
661.2585	0.0091
661.4436	0.0043
661.6288	0.0324
661.8139	-0.0014
661.9991	-0.017
662.1842	-0.009
662.3693	-0.0054
662.5544	0.0038
662.7394	0.0162
662.9245	-0.0136
663.1095	-0.0105
663.2945	-0.0082
663.4795	-0.0064
663.6644	0.0073
663.8494	0.0025
664.0343	0.0141
664.2193	0.007
664.4042	0.0161
664.589	0.0068
664.7739	0.0153
664.9587	-0.0188
665.1436	-0.0181
665.3284	0.0133
665.5132	-0.0156
665.698	0.0098
665.8827	0.0208
666.0675	-0.0095
666.2522	0.0253
666.4369	0.0047
666.6216	0.0139
666.8063	-0.0082
666.9909	-0.0008
667.1756	0.0102
667.3602	0.0148
667.5448	0.0239
667.7294	0.0208
667.9139	0.0033
668.0985	0.0056
668.283	-0.0056
668.4675	0.0177
668.652	0.0089
668.8365	-0.0048
669.0209	0.0223
669.2054	0.018
669.3898	0.0005
669.5742	0.0447
669.7586	0.0071
669.943	0.0081
670.1273	-0.0123
670.3117	0.039
670.496	0.0053
670.6803	-0.0042
670.8646	-0.0224
671.0488	0.0221
671.2331	-0.0186
671.4173	0.0025
671.6015	0.0056
671.7857	0.0053
671.9699	0.0145
672.1541	0.0009
672.3382	0.0046
672.5223	-0.0065
672.7064	-0.0014
672.8905	-0.0103
673.0746	0.0248
673.2587	-0.0019
673.4427	0.0132
673.6267	-0.0068
673.8107	0.0046
673.9947	0.0085
674.1787	-0.0133
674.3626	-0.0101
674.5465	0.0117
674.7304	-0.0008
674.9143	-0.0037
675.0982	0.0054
675.2821	0.0016
675.4659	-0.0177
675.6497	0.0022
675.8335	-0.0001
676.0173	-0.0017
676.2011	0.0384
676.3849	0.0192
676.5686	0.0021
676.7523	-0.0038
676.936	-0.0121
677.1197	-0.0075
677.3034	0.0292
677.487	-0.0027
677.6706	0.0302
677.8542	0.0042
678.0378	-0.0053
678.2214	0.0017
678.405	0.0027
678.5885	0.0003
678.772	0.0155
678.9555	0.0049
679.139	0.0129
679.3225	-0.0003
679.5059	0.008
679.6894	0.009
679.8728	-0.0023
680.0562	0.0068
680.2395	-0.0143
680.4229	-0.0136
680.6062	-0.0013
680.7896	-0.0088
680.9729	0.0264
681.1562	-0.0017
681.3394	0.0141
681.5227	0.0001
681.7059	-0.0016
681.8891	0.0123
682.0723	0.0082
682.2555	-0.0115
682.4387	0.0011
682.6218	0.0269
682.805	-0.0007
682.9881	0.0137
683.1712	0.011
683.3542	0.0195
683.5373	-0.023
683.7203	0.0106
683.9034	0.0082
684.0864	0.0034
684.2694	-0.0034
684.4523	0.0058
684.6353	0.0081
684.8182	-0.0093
685.0011	0.0142
685.184	0.0115
685.3669	0.0232
685.5498	0.0039
685.7326	-0.002
685.9154	-0.0147
686.0982	0.0112
686.281	-0.0167
686.4638	-0.0007
686.6465	0.0024
686.8293	-0.0129
687.012	-0.0025
687.1947	0.0116
687.3774	0.0095
687.56	-0.0052
687.7427	-0.0033
687.9253	-0.0068
688.1079	-0.0126
688.2905	-0.031
688.4731	0.0188
688.6556	0.0049
688.8382	-0.0316
689.0207	0.0194
689.2032	0.0169
689.3857	0.0068
689.5681	-0.0037
689.7506	0.0311
689.933	-0.009
690.1154	0.0163
690.2978	0.0091
690.4802	0.0093
690.6626	0.0281
690.8449	0.0154
691.0272	0.0045
691.2095	-0.0189
691.3918	0.0102
691.5741	0.0076
691.7563	0.0101
691.9386	0.0108
692.1208	0.0243
692.303	-0.0034
692.4852	0.0083
692.6673	0.0185
692.8495	0.0016
693.0316	0.0047
693.2137	0.0093
693.3958	0.0044
693.5778	0.007
693.7599	0.0035
693.9419	-0.0057
694.1239	0.0099
694.3059	0.0297
694.4879	-0.0079
694.6699	-0.0094
694.8518	0.0082
695.0337	0.0108
695.2157	0.0415
695.3975	0.0264
695.5794	-0.0086
695.7613	0.0018
695.9431	-0.0057
696.1249	0.0011
696.3067	0.0004
696.4885	0.0079
696.6703	0.0064
696.852	-0.0018
697.0337	0.0103
697.2154	0.0015
697.3971	0.0036
697.5788	0.0259
697.7605	-0.008
697.9421	0.0293
698.1237	0.0144
698.3053	0.002
698.4869	-0.0001
698.6685	-0.0046
698.85	0.0094
699.0315	-0.0039
699.213	-0.0175
699.3945	0.0056
699.576	0.015
699.7575	0.0131
699.9389	-0.02
700.1203	0.0194
700.3017	-0.0072
700.4831	0.0132
700.6645	0.0329
700.8458	-0.008
701.0271	0.0303
701.2084	0.0033
701.3897	0.0017
701.571	-0.0002
701.7523	0.004
701.9335	0.0073
702.1147	0.0296
702.2959	-0.0014
702.4771	0.0159
702.6583	-0.0008
702.8394	-0.033
703.0205	0.0149
703.2016	0.002
703.3827	0.006
703.5638	0.0109
703.7449	-0.0043
703.9259	0.0228
704.1069	-0.0103
704.2879	0.0169
704.4689	-0.0011
704.6499	0.009
704.8308	0.0058
705.0117	0.0106
705.1927	0.0153
705.3735	0.0124
705.5544	0.0125
705.7353	0.0151
705.9161	-0.0298
706.0969	-0.0118
706.2777	0.0038
706.4585	0.0085
706.6393	0.0152
706.82	0.0297
707.0007	-0.0064
707.1815	0.0049
707.3621	0.0265
707.5428	0.019
707.7235	0.0069
707.9041	0.0038
708.0847	0.0064
708.2653	-0.0031
708.4459	0.0025
708.6265	-0.0015
708.807	0.02
708.9875	-0.0188
709.168	0.0171
709.3485	0.0012
709.529	0.0344
709.7095	-0.0029
709.8899	-0.0037
710.0703	0.0005
710.2507	-0.0075
710.4311	-0.0198
710.6115	0.0289
710.7918	0.029
710.9721	-0.0002
711.1524	-0.0136
711.3327	-0.0213
711.513	-0.0147
711.6932	-0.0086
711.8735	0.0177
712.0537	-0.0189
712.2339	-0.0018
712.4141	0.036
712.5942	-0.0074
712.7744	0.0129
712.9545	0.0167
713.1346	0.0082
713.3147	0.0113
713.4947	-0.0026
713.6748	0.0152
713.8548	-0.0043
714.0348	0.0066
714.2148	0.0097
714.3948	0.0082
714.5748	0.0034
714.7547	0.0208
714.9346	0.0258
715.1145	-0.0045
715.2944	-0.0226
715.4743	0.0215
715.6541	-0.0087
715.834	0.0284
716.0138	0.0257
716.1936	0.0045
716.3733	0.0028
716.5531	0.0041
716.7328	0.0319
716.9126	0.0028
717.0923	-0.0254
717.2719	0.0071
717.4516	-0.001
717.6312	-0.0289
717.8109	0.0184
717.9905	0.0044
718.1701	-0.0057
718.3496	0.0282
718.5292	-0.0091
718.7087	0.0248
718.8882	0.008
719.0677	0.0231
719.2472	-0.0016
719.4267	-0.0222
719.6061	0.0111
719.7856	0.0229
719.965	0.0152
720.1443	-0.0289
720.3237	-0.0053
720.5031	0.0059
720.6824	-0.0047
720.8617	0.0062
721.041	0.0101
721.2203	-0.0195
721.3995	-0.0029
721.5788	-0.0033
721.758	-0.0117
721.9372	0.0112
722.1164	-0.0158
722.2956	0.006
722.4747	-0.0097
722.6538	-0.0145
722.8329	0.025
723.012	0.0105
723.1911	0.0006
723.3702	0.0152
723.5492	0.0097
723.7282	-0.0179
723.9072	0.0145
724.0862	0.0111
724.2652	0.0124
724.4441	0.0043
724.623	-0.016
724.8019	0.0191
724.9808	0.0179
725.1597	-0.0002
725.3385	0.0288
725.5174	0.0012
725.6962	-0.0096
725.875	0.0215
726.0538	0.004
726.2325	0.0347
726.4112	-0.0116
726.59	-0.0303
726.7687	-0.0259
726.9474	0.0047
727.126	0.0106
727.3047	-0.0002
727.4833	-0.0088
727.6619	-0.0118
727.8405	0.0092
728.0191	0.0185
728.1976	0.0034
728.3762	-0.0122
728.5547	-0.012
728.7332	0.0368
728.9116	0.0012
729.0901	0.0087
729.2686	-0.0048
729.447	-0.0061
729.6254	0.0168
729.8038	-0.0002
729.9821	-0.0159
730.1605	-0.0007
730.3388	0.0046
730.5171	0.0134
730.6954	-0.0152
730.8737	-0.0034
731.0519	-0.0116
731.2302	0.0235
731.4084	-0.0084
731.5866	-0.0025
731.7648	-0.0001
731.9429	0.0234
732.1211	0.0064
732.2992	0.0121
732.4773	0.0036
732.6554	-0.019
732.8335	0.0239
733.0115	0.0111
733.1896	-0.0228
733.3676	0.0132
733.5456	0.0072
733.7235	-0.0085
733.9015	0.0058
734.0794	-0.0203
734.2574	-0.0156
734.4353	0.0291
734.6131	0.0018
734.791	0.015
734.9689	0.007
735.1467	-0.0295
735.3245	0.0028
735.5023	0.0139
735.68	0.0021
735.8578	0.008
736.0355	0.0153
736.2132	0.0087
736.3909	0.0109
736.5686	-0.0111
736.7463	-0.0155
736.9239	0.0185
737.1015	0.0046
737.2791	0.024
737.4567	0.022
737.6343	-0.0023
737.8118	0.0127
737.9894	0.0217
738.1669	-0.0171
738.3444	0.0252
738.5218	0.0016
738.6993	0.0135
738.8767	0.0115
739.0541	-0.0036
739.2315	-0.003
739.4089	0.0231
739.5863	-0.003
739.7636	-0.0022
739.9409	0.0031
740.1182	0.0227
740.2955	0.0021
740.4728	-0.0267
740.65	-0.0194
740.8272	0.0047
741.0044	-0.0219
741.1816	0.0097
741.3588	-0.0088
741.5359	-0.0017
741.7131	0.0276
741.8902	0.0111
742.0673	-0.0168
742.2444	0.0319
742.4214	0.0263
742.5985	-0.001
742.7755	0.0072
742.9525	-0.0064
743.1295	-0.0383
743.3064	-0.0099
743.4834	0.0118
743.6603	0.0525
743.8372	-0.0289
744.0141	0.02
744.191	0.0136
744.3678	-0.0487
744.5446	-0.0087
744.7215	-0.0094
744.8982	0.0025
745.075	0.0424
745.2518	-0.0025
745.4285	0.0299
745.6052	-0.0319
745.7819	0.0208
745.9586	-0.0069
746.1353	-0.0424
746.3119	-0.0186
746.4885	0.0205
746.6651	-0.0066
746.8417	-0.0002
747.0183	0.0169
747.1948	0.0033
747.3714	-0.0186
747.5479	0.0183
747.7244	0.01
747.9008	-0.0064
748.0773	0.0316
748.2537	0.0218
748.4301	0.0156
748.6065	-0.0087
748.7829	-0.0362
748.9593	-0.0152
749.1356	0.012
749.3119	0.019
749.4882	0.0118
749.6645	0.0065
749.8408	-0.0073
750.017	0.0207
750.1933	-0.0132
750.3695	0.0199
750.5457	-0.0072
750.7218	-0.0118
750.898	-0.0065
751.0741	0.003
751.2502	0.0165
751.4263	0.0014
751.6024	0.0133
751.7784	-0.014
751.9545	0.0084
752.1305	0.0121
752.3065	0.0156
752.4825	-0.0166
752.6584	0.0045
752.8344	-0.0086
753.0103	-0.0264
753.1862	0.0024
753.3621	-0.0057
753.5379	-0.0081
753.7138	0.0343
753.8896	0.0288
754.0654	0.0185
754.2412	-0.0181
754.417	0.0103
754.5927	0.0211
754.7685	0.0153
754.9442	-0.0086
755.1199	0.0107
755.2956	0.0007
755.4712	0.0095
755.6469	-0.0001
755.8225	0.0195
755.9981	0.0035
756.1736	0.0167
756.3492	0.0188
756.5248	0.0093
756.7003	-0.0148
756.8758	0.0068
757.0513	-0.0011
757.2267	0.0103
757.4022	-0.0083
757.5776	-0.0031
757.753	0.03
757.9284	0.0129
758.1038	0.0076
758.2791	0.0082
758.4545	-0.0064
758.6298	0.0042
758.8051	0.0044
758.9803	-0.0013
759.1556	-0.0082
759.3308	0.001
759.506	0.0088
759.6812	0.0001
759.8564	0.0047
760.0316	-0.0034
760.2067	0.02
760.3819	0.0003
760.557	-0.0001
760.732	0.0019
760.9071	0.0232
761.0821	-0.0137
761.2572	0.0029
761.4322	0.0146
761.6072	-0.0056
761.7821	-0.02
761.9571	0.0279
762.132	-0.0051
762.3069	0.0262
762.4818	0.011
762.6567	-0.0142
762.8316	0.0146
763.0064	0.0144
763.1812	-0.0009
763.356	-0.0113
763.5308	0.0164
763.7055	0.0039
763.8803	-0.0032
764.055	0.0081
764.2297	-0.0103
764.4044	-0.0038
764.579	-0.0051
764.7537	-0.0034
764.9283	0.0273
765.1029	-0.0029
765.2775	0.0133
765.4521	-0.0066
765.6266	0.0131
765.8011	0.0129
765.9756	0.0093
766.1501	0.0019
766.3246	0.0192
766.4991	0.0219
766.6735	0.0284
766.8479	0.0132
767.0223	0.0373
767.1967	0.0003
767.371	0.0049
767.5454	-0.0021
767.7197	0.0132
767.894	0.0108
768.0683	0.0397
768.2425	-0.0026
768.4168	0.0199
768.591	0.0115
768.7652	-0.0028
768.9394	-0.0393
769.1135	-0.0105
769.2877	0.0027
769.4618	0.0164
769.6359	-0.0052
769.81	0.0123
769.984	0.0174
770.1581	-0.0006
770.3321	0.0238
770.5061	0.014
770.6801	-0.0081
770.8541	-0.0029
771.028	0.0373
771.202	0.0141
771.3759	-0.0021
771.5498	0.0195
771.7236	0.0106
771.8975	0.0113
772.0713	0.0147
772.2451	-0.0142
772.4189	0.0017
772.5927	-0.0267
772.7665	-0.0072
772.9402	0.0223
773.1139	-0.0296
773.2876	-0.0117
773.4613	0.0117
773.635	0.0246
773.8086	0.0152
773.9822	0.0118
774.1558	0.0796
774.3294	0.0277
774.503	0.0195
774.6765	0.01
774.8501	0.0156
775.0236	0.0401
775.1971	0.0104
775.3705	-0.0142
775.544	-0.0431
775.7174	0.007
775.8908	-0.015
776.0642	0.0302
776.2376	0.0699
776.4109	-0.0139
776.5843	-0.0454
776.7576	0.023
776.9309	0.0174
777.1041	-0.0161
777.2774	0.0046
777.4506	-0.0474
777.6238	-0.0349
777.797	0.0198
777.9702	0.0379
778.1434	-0.0324
778.3165	-0.019
778.4896	-0.0175
778.6627	0.0093
778.8358	0.002
779.0089	-0.0133
779.1819	0.0128
779.3549	-0.002
779.5279	-0.0042
779.7009	0.0623
779.8739	0.016
780.0468	0.0068
780.2197	0.0145
780.3926	0.0003
780.5655	0.0208
780.7384	0.023
780.9112	0.0224
781.0841	0.0344
781.2569	0.0191
781.4297	0.009
781.6024	0.0236
781.7752	0.0356
781.9479	0.0383
782.1206	0.0104
782.2933	-0.0037
782.466	0.0277
782.6386	-0.0071
782.8113	-0.0185
782.9839	-0.0303
783.1565	0.0064
783.329	0.0003
783.5016	0.013
783.6741	-0.0052
783.8466	0.033
784.0191	0.0271
784.1916	-0.002
784.3641	0.0005
784.5365	0.0034
784.7089	-0.0029
784.8813	0.0464
785.0537	0.0527
785.2261	0.0303
785.3984	-0.0232
785.5707	-0.0091
785.743	0.0616
785.9153	0.0071
786.0876	-0.0465
786.2598	-0.032
786.432	0.0264
786.6042	0.0538
786.7764	-0.0044
786.9486	-0.0092
787.1207	0.0097
787.2928	0.0334
787.4649	-0.0061
787.637	-0.0113
787.8091	0.0038
787.9811	0.0241
788.1532	0.0166
788.3252	-0.0043
788.4972	0.0177
788.6691	0.0074
788.8411	-0.0033
789.013	0.0322
789.1849	-0.0018
789.3568	0.0012
789.5287	0.0497
789.7005	-0.0427
789.8723	0.0336
790.0442	0.0035
790.2159	-0.0187
790.3877	0.0308
790.5595	0.0839
790.7312	0.0147
790.9029	0.0183
791.0746	-0.028
791.2463	-0.054
791.4179	0.0037
791.5896	-0.0054
791.7612	0.0674
791.9328	0.0031
792.1044	0.0337
792.2759	-0.0497
792.4474	0.0577
792.619	-0.0344
792.7905	0.0387
792.9619	0.0294
793.1334	0.0609
793.3048	0.0851
793.4762	0.0081
793.6476	-0.0411
793.819	-0.001
793.9904	-0.0039
794.1617	-0.0016
794.333	0.0205
794.5043	-0.0171
794.6756	-0.0032
794.8469	-0.0039
795.0181	0.0118
795.1893	0.0421
795.3605	0.0399
795.5317	-0.0318
795.7029	0.0364
795.874	-0.0142
796.0452	0.0698
796.2163	0.0439
796.3873	0.0308
796.5584	0.0611
796.7294	0.0175
796.9005	-0.0478
797.0715	-0.0024
797.2425	0.1172
797.4134	0.0283
797.5844	0.0315
797.7553	-0.0694
797.9262	0.0367
798.0971	0.0419
798.2679	-0.0137
798.4388	0.0755
798.6096	-0.0061
798.7804	0.0018
798.9512	0.05
799.122	-0.0468
799.2927	0.0199
799.4635	-0.0511
799.6342	-0.0053
799.8049	0.0719
799.9755	-0.0136
800.1462	0.0007
800.3168	0.0113
800.4874	-0.0809
800.658	0.0369
800.8286	0.0313
800.9991	0.1257
801.1696	-0.0036
801.3402	0.0258
801.5106	-0.0314
801.6811	0.0154
801.8516	0.0933
802.022	-0.0654
802.1924	0.1517
802.3628	0.0901
802.5332	0.0456
802.7035	0.012
802.8739	-0.0181
803.0442	0.038
803.2145	0.0091
803.3847	0.0313
803.555	0.0605
803.7252	0.0009
803.8954	0.0041
804.0656	0.0084
804.2358	-0.0204
804.4059	0.1361
804.5761	-0.0084
804.7462	-0.0094
804.9163	0.0437
805.0864	-0.0311
805.2564	0.0385
805.4264	-0.017
805.5965	0.0709
805.7665	-0.0113
805.9364	0.0086
806.1064	0.0462
806.2763	0.0494
806.4462	0.0098
806.6161	0.0138
806.786	-0.0152
806.9559	0.061
807.1257	0.0224
807.2955	0.0051
807.4653	-0.0123
807.6351	0.0595
807.8048	-0.0309
807.9746	0.062
808.1443	0.0478
808.314	0.0501
808.4837	0.1339
808.6533	-0.0221
808.8229	-0.0236
808.9926	0.0159
809.1622	-0.0189
809.3317	-0.0586
809.5013	-0.0459
809.6708	0.0143
809.8403	0.0691
810.0098	0.0681
810.1793	0.0617
810.3488	-0.036
810.5182	0.1596
810.6876	0.0724
810.857	0.0101
811.0264	-0.1397
811.1958	0.1528
811.3651	0.0459
811.5344	0.0395
811.7037	0.1033
811.873	0.1241
812.0422	-0.107
812.2115	0.0611
812.3807	-0.0648
812.5499	-0.019
812.7191	0.0235
812.8882	-0.0047
813.0574	0.0255
813.2265	-0.0199
813.3956	0.0912
813.5646	0.1148
813.7337	-0.0498
813.9027	-0.1028
814.0718	0.0254
814.2407	0.0819
814.4097	0.0843
814.5787	0.0508
814.7476	0.0787
814.9165	0.0506
815.0854	-0.0491
815.2543	0.0353
815.4232	0.2338
815.592	0.0906
815.7608	0.0102
815.9296	-0.0635
816.0984	0.0788
816.2671	-0.2433
816.4359	0.1928
816.6046	-0.028
816.7733	0.0977
816.942	0.0319
817.1106	0.157
817.2793	-0.0503
817.4479	-0.0082
817.6165	0.032
817.785	0.0316
817.9536	-0.0422
818.1221	0.0827
818.2906	-0.0213
818.4591	-0.0552
818.6276	0.1188
818.7961	-0.0232
818.9645	0.0585
819.1329	0.0149
819.3013	0.008
819.4697	0.2468
819.638	-0.0198
819.8064	0.0808
819.9747	0.1221
820.143	-0.1508
820.3113	0.1501
820.4795	0.0504
820.6477	0.0877
820.816	-0.0439
820.9842	0.0148
821.1523	0.1657
821.3205	0.1582
821.4886	-0.1044
821.6567	0.0012
821.8248	0.1693
821.9929	-0.0549
822.1609	0.0259
822.329	0.0015
822.497	0.11
822.665	-0.0296
822.833	-0.058
823.0009	0.0463
823.1688	0.113
823.3367	-0.1136
823.5046	0.1815
823.6725	0.043
823.8404	0.0073
824.0082	-0.0513
824.176	0.0393
824.3438	0.0222
824.5116	0.018
824.6793	0.1163
824.847	-0.0143
825.0147	0.1294
825.1824	0.0373
825.3501	-0.0497
825.5177	-0.0478
825.6854	-0.0882
825.853	-0.0351
826.0206	0.0165
826.1881	0.2989
826.3557	-0.0672
826.5232	0.277
826.6907	0.0083
826.8582	0.1143
827.0257	0.1727
827.1931	0.1441
827.3605	0.0637
827.528	0.0079
827.6953	-0.1785
827.8627	-0.0721
828.03	0.0462
828.1974	0.0119
828.3647	0.0471
828.532	0.1973
828.6992	0.1142
828.8665	-0.1554
829.0337	0.0497
829.2009	0.1919
829.3681	0.1016
829.5352	-0.1513
829.7024	-0.0435
829.8695	-0.0019
830.0366	0.173
830.2037	0.2349
830.3707	0.139
830.5378	0.0375
830.7048	-0.042
830.8718	0.5698
831.0388	-0.0755
831.2057	0.1429
831.3727	-0.1633
831.5396	0.0541
831.7065	-0.6127
831.8734	0.1094
832.0402	0.1919
832.2071	-0.5282
832.3739	-0.2768
832.5407	-1.558
832.7075	-0.3077
832.8742	0.5307
833.041	0.1759
833.2077	0.1103
833.3744	0.3834
833.541	-0.0705
833.7077	0.3789
833.8743	0.0464
834.0409	0.1811
834.2075	0.106
834.3741	-0.1248
834.5407	0.0968
834.7072	0.0531
834.8737	0.0663
835.0402	0.5093
835.2067	0.4929
835.3731	-0.151
835.5395	0.0208
835.706	-0.1273
835.8723	0.0953
836.0387	0.2618
836.2051	0.1839
836.3714	-0.1702
836.5377	0.1798
836.704	0.2894
836.8703	0.0436
837.0365	-0
837.2027	0.5884
837.3689	0.1058
837.5351	-0
837.7013	-0.2588
837.8674	-0.48
838.0335	-0.1196
838.1997	-0.017
838.3657	-0
838.5318	-0.3329
838.6978	-0
838.8639	-0.4476
839.0299	-0.1561
839.1958	0.1828
839.3618	-0
839.5277	0.0432
839.6937	0.7687
839.8596	0.2844
840.0254	0.0884
840.1913	0.2739
840.3571	-0.0856
840.523	-0
840.6888	0.0999
840.8545	-0.4603
841.0203	0.1785
841.186	0.1235
841.3517	0.0653
841.5174	0.0356
841.6831	0.8651
841.8488	0.22
842.0144	0.1708
842.18	-0
842.3456	-0.3166
842.5112	-0
842.6767	-0.0694
842.8422	0.3587
843.0077	0.7997
843.1732	-0.3685
843.3387	2.5922
843.5042	-0
843.6696	-0.1979
843.835	0.3063
844.0004	-0.0436
844.1657	-0
844.3311	-0
844.4964	-0
844.6617	0.8675
844.827	-0
844.9923	0.0024
845.1575	-0.0548
845.3227	-0.29
845.4879	-0.1667
845.6531	0.0638
845.8183	0.1449
845.9834	-0
846.1485	0.4025
846.3136	-0.258
846.4787	-0
846.6438	-0.141
846.8088	0.7317
846.9738	-0
847.1388	0.3721
847.3038	0.2322
847.4687	0.1346
847.6337	-0.208
847.7986	0.037
847.9635	0.8242
848.1284	-0
848.2932	0.5124
848.458	-0
848.6228	0.7791
848.7876	0.1916
848.9524	0.8142
849.1172	-1.9981
849.2819	-0
849.4466	0.5742
849.6113	0.137
849.7759	-0
849.9406	0.4067
850.1052	-0
850.2698	0.5493
850.4344	-0.4441
850.599	0.6492
850.7635	-0
850.928	-0
851.0925	1.9223
851.257	-0.0443
851.4215	-0
851.5859	-0.0429
851.7503	-0
851.9147	-0.2179
852.0791	-0.0819
852.2434	0.7066
852.4078	-0
852.5721	0.1849
852.7364	0.1862
852.9007	-0.1744
853.0649	-0
853.2291	0.3654
853.3934	-0
853.5575	-0.1815
853.7217	0.6091
853.8859	-0
854.05	-0.1876
854.2141	0.1408
854.3782	0.0639
854.5423	0.7561
854.7063	0.3443
854.8703	0.9101
855.0343	-0.2458
855.1983	-0.0663
855.3623	0.0042
855.5262	-0.1634
855.6901	0.6763
855.854	-0.0475
856.0179	0.3239
856.1818	1.6144
856.3456	-0
856.5094	-0.586
856.6732	-0.3625
856.837	-0.67
857.0008	-0
857.1645	-0.1566
857.3282	-0.3934
857.4919	0.8947
857.6556	-0.5408
857.8192	-0.2543
857.9828	-0.0377
858.1465	-0
858.31	-0
858.4736	-0.5376
858.6372	0.3109
858.8007	0.8327
858.9642	0.5151
859.1277	1.033
859.2911	-0.3524
859.4546	-0
859.618	1.4103
859.7814	-0.3445
859.9448	-0
860.1081	-0
860.2715	-1.2377
860.4348	0.3197
860.5981	0.3588
860.7614	0.3577
860.9246	0.3476
861.0879	0.5828
861.2511	-0
861.4143	-0
861.5774	1.0719
861.7406	0.628
861.9037	-0
862.0668	-0
862.2299	0.75
862.393	-0
862.556	-0
862.7191	-0.6141
862.8821	0.1623
863.0451	0.3686
863.208	-0.4922
863.371	-0.0246
863.5339	0.4604
863.6968	-0
863.8597	-0.3646
864.0225	-0
864.1854	-0.1377
864.3482	-0.4954
864.511	0.0687
864.6737	-0
864.8365	0.5466
864.9992	-0
865.1619	-0.24
865.3246	-2.249
865.4873	1.959
865.65	0.6899
865.8126	0.3345
865.9752	-0.2634
866.1378	0.7172
866.3004	0.112
866.4629	-1.7537
866.6254	-0
866.7879	-0.3106
866.9504	-0.5495
867.1129	0.0152
867.2753	0.4488
867.4377	-0
867.6001	-0.6421
867.7625	-0.3006
867.9249	-0
868.0872	-0
868.2495	-0
868.4118	0.4483
868.5741	-0.3903
868.7363	-0.6401
868.8986	-0.5923
869.0608	-0.5446
869.223	-0.0734
869.3851	-0.2733
869.5473	0.101
869.7094	-0
869.8715	-0
870.0336	0.2665
870.1957	-0
870.3577	0.6282
870.5197	0.4697
870.6817	-0.4388
870.8437	0.6845
871.0057	-0.1133
871.1676	0.3666
871.3295	-0
871.4914	-0
871.6533	0.8451
871.8151	-0
871.977	-0.271
872.1388	0.0346
872.3006	-0
872.4623	-0
872.6241	1.1085
872.7858	0.2791
872.9475	-0
873.1092	0.016
873.2709	0.1623
873.4325	-1.9424
873.5941	-0.6798
873.7557	-0
873.9173	-0
874.0789	0.5352
874.2404	-0
874.4019	0.1184
874.5634	0.3313
874.7249	-0
874.8863	0.0974
875.0478	-0.079
875.2092	0.2889
875.3706	-0.0371
875.5319	0.9263
875.6933	-0
875.8546	-0
876.0159	1.2637
876.1772	0.1974
876.3385	-0
876.4997	-0
876.6609	0.7616
876.8221	-0
876.9833	-0.063
877.1445	0.5241
877.3056	-0.9118
877.4667	-0.2385
877.6278	-0
877.7889	0.3115
877.9499	1.1942
878.111	-0.781
878.272	0.0759
878.433	-0
878.5939	-0
878.7549	0.3336
878.9158	0.1289
879.0767	0.2934
879.2376	-0
879.3984	-0
879.5593	0.5789
879.7201	-1.4914
879.8809	-0.1043
880.0417	-0.1084
880.2024	-0
880.3632	-0.3356
880.5239	0.0358
880.6846	-0
880.8452	-0.2313
881.0059	0.3774
881.1665	0.1948
881.3271	0.1951
881.4877	0.332
881.6483	-1.3099
881.8088	-0
881.9693	-1.077
882.1298	-1.077
882.2903	-1.077
