Data from D4ACN5uM440nmA_Absorbance_13-50-24-547.txt Node
Date: Fri Feb 21 13:50:24 GMT 2025
User: LASERRRRR
Spectrometer: FLMT03099
Trigger mode: 0
Integration Time (sec): 1.500000E-2
Scans to average: 1
Electric dark correction enabled: true
Nonlinearity correction enabled: false
Boxcar width: 0
XAxis mode: Wavelengths
Number of Pixels in Spectrum: 3648
>>>>>Begin Spectral Data<<<<<
179.3399	0.0245
179.5586	0.0245
179.7771	0.0245
179.9957	0.0677
180.2143	-0.301
180.4329	-0.104
180.6514	-0.4431
180.8699	-0
181.0885	-0.016
181.307	0.63
181.5255	0.079
181.744	-0
181.9625	0.2546
182.181	-0.4704
182.3994	0.0174
182.6179	-0
182.8363	-0
183.0547	2.1861
183.2732	-0.0503
183.4916	0.2711
183.71	0.2276
183.9284	0.0719
184.1467	0.0024
184.3651	-0.062
184.5835	0.2948
184.8018	0.1699
185.0201	0.2038
185.2385	0.2666
185.4568	0.1804
185.6751	0.1151
185.8934	0.2477
186.1117	-0.1636
186.3299	0.1371
186.5482	0.1197
186.7664	-0.0268
186.9847	0.101
187.2029	0.3467
187.4211	0.1084
187.6393	0.0817
187.8575	0.0882
188.0757	0.2441
188.2939	0.1872
188.512	0.2074
188.7302	0.167
188.9483	0.6682
189.1665	0.5791
189.3846	0.6527
189.6027	0.2731
189.8208	0.2432
190.0389	0.2302
190.257	-0.0472
190.475	0.1992
190.6931	0.0191
190.9111	0.3417
191.1292	0.2015
191.3472	0.1828
191.5652	0.2032
191.7832	0.2992
192.0012	0.1582
192.2192	0.1929
192.4371	0.2024
192.6551	0.2265
192.873	0.1297
193.091	0.1262
193.3089	0.1567
193.5268	0.2415
193.7447	0.2619
193.9626	0.2084
194.1805	0.2025
194.3984	0.189
194.6162	0.2905
194.8341	0.2559
195.0519	0.2139
195.2697	0.3516
195.4875	0.3874
195.7054	0.2868
195.9231	0.2577
196.1409	0.3296
196.3587	0.2802
196.5765	0.288
196.7942	0.3855
197.012	0.3537
197.2297	0.2632
197.4474	0.4287
197.6651	0.2929
197.8828	0.3981
198.1005	0.4203
198.3182	0.4498
198.5358	0.3488
198.7535	0.3767
198.9711	0.4542
199.1888	0.3472
199.4064	0.3782
199.624	0.3917
199.8416	0.3847
200.0592	0.3532
200.2767	0.424
200.4943	0.4567
200.7119	0.3619
200.9294	0.4386
201.1469	0.4446
201.3645	0.4598
201.582	0.3997
201.7995	0.3866
202.017	0.4145
202.2344	0.4149
202.4519	0.3819
202.6694	0.4183
202.8868	0.4228
203.1042	0.3811
203.3217	0.3925
203.5391	0.4104
203.7565	0.3473
203.9739	0.3645
204.1913	0.3297
204.4086	0.3627
204.626	0.3725
204.8433	0.369
205.0607	0.3863
205.278	0.3506
205.4953	0.3359
205.7126	0.3453
205.9299	0.3239
206.1472	0.3081
206.3644	0.3544
206.5817	0.3187
206.7989	0.3581
207.0162	0.3307
207.2334	0.3307
207.4506	0.3215
207.6678	0.3207
207.885	0.3011
208.1022	0.3136
208.3194	0.3083
208.5365	0.3259
208.7537	0.2895
208.9708	0.2883
209.1879	0.2756
209.405	0.2969
209.6222	0.2647
209.8392	0.302
210.0563	0.3
210.2734	0.2689
210.4905	0.261
210.7075	0.2738
210.9245	0.282
211.1416	0.2533
211.3586	0.2663
211.5756	0.2332
211.7926	0.2707
212.0096	0.2636
212.2265	0.2771
212.4435	0.2701
212.6604	0.2505
212.8774	0.2489
213.0943	0.2526
213.3112	0.244
213.5281	0.2446
213.745	0.2426
213.9619	0.2347
214.1788	0.2586
214.3956	0.2459
214.6125	0.2707
214.8293	0.2482
215.0461	0.2486
215.2629	0.2647
215.4798	0.2486
215.6965	0.2506
215.9133	0.2563
216.1301	0.2432
216.3469	0.2433
216.5636	0.2431
216.7803	0.2549
216.9971	0.243
217.2138	0.2436
217.4305	0.2624
217.6472	0.2413
217.8639	0.2395
218.0805	0.2441
218.2972	0.2484
218.5138	0.2522
218.7305	0.2517
218.9471	0.238
219.1637	0.2749
219.3803	0.2717
219.5969	0.2571
219.8135	0.2555
220.0301	0.2555
220.2466	0.2631
220.4632	0.2623
220.6797	0.2613
220.8962	0.26
221.1127	0.2673
221.3292	0.2825
221.5457	0.2744
221.7622	0.2656
221.9787	0.2923
222.1951	0.2717
222.4116	0.2707
222.628	0.2877
222.8444	0.2841
223.0608	0.2694
223.2772	0.2963
223.4936	0.2849
223.71	0.2837
223.9264	0.2796
224.1427	0.295
224.3591	0.288
224.5754	0.2835
224.7917	0.2853
225.008	0.299
225.2243	0.3051
225.4406	0.2868
225.6569	0.3008
225.8732	0.3133
226.0894	0.3031
226.3057	0.2966
226.5219	0.3177
226.7381	0.3165
226.9543	0.3142
227.1705	0.3173
227.3867	0.3123
227.6029	0.3249
227.8191	0.3393
228.0352	0.3432
228.2513	0.3449
228.4675	0.335
228.6836	0.3437
228.8997	0.3403
229.1158	0.3476
229.3319	0.3602
229.548	0.3549
229.764	0.3541
229.9801	0.3745
230.1961	0.3589
230.4121	0.3653
230.6282	0.3932
230.8442	0.3859
231.0602	0.3805
231.2761	0.388
231.4921	0.3901
231.7081	0.3805
231.924	0.394
232.14	0.3942
232.3559	0.4095
232.5718	0.4098
232.7877	0.4134
233.0036	0.4074
233.2195	0.4092
233.4353	0.4217
233.6512	0.4167
233.867	0.4236
234.0829	0.4225
234.2987	0.4229
234.5145	0.4248
234.7303	0.4336
234.9461	0.4316
235.1619	0.4406
235.3776	0.441
235.5934	0.4245
235.8091	0.4424
236.0249	0.4417
236.2406	0.4442
236.4563	0.4524
236.672	0.4409
236.8877	0.4526
237.1034	0.44
237.319	0.45
237.5347	0.4456
237.7503	0.4475
237.966	0.4667
238.1816	0.4546
238.3972	0.4609
238.6128	0.456
238.8284	0.4674
239.0439	0.4516
239.2595	0.4594
239.475	0.4482
239.6906	0.4626
239.9061	0.4686
240.1216	0.4576
240.3371	0.4701
240.5526	0.4611
240.7681	0.4654
240.9836	0.4607
241.199	0.4492
241.4145	0.4444
241.6299	0.4543
241.8453	0.4302
242.0607	0.4374
242.2761	0.4406
242.4915	0.4181
242.7069	0.4137
242.9223	0.4128
243.1376	0.4095
243.353	0.3938
243.5683	0.3931
243.7836	0.3883
243.9989	0.3739
244.2142	0.365
244.4295	0.3655
244.6448	0.3713
244.86	0.3461
245.0753	0.3327
245.2905	0.3325
245.5057	0.3253
245.721	0.3332
245.9362	0.3177
246.1514	0.3144
246.3665	0.3098
246.5817	0.2997
246.7969	0.2919
247.012	0.2814
247.2271	0.2897
247.4423	0.2792
247.6574	0.2862
247.8725	0.2686
248.0876	0.2639
248.3026	0.2627
248.5177	0.2557
248.7328	0.2531
248.9478	0.2481
249.1628	0.2476
249.3779	0.2365
249.5929	0.2312
249.8079	0.2346
250.0228	0.2281
250.2378	0.2291
250.4528	0.229
250.6677	0.2161
250.8827	0.2187
251.0976	0.2115
251.3125	0.2142
251.5274	0.2077
251.7423	0.2143
251.9572	0.2064
252.172	0.2014
252.3869	0.2097
252.6017	0.2051
252.8166	0.1948
253.0314	0.1979
253.2462	0.1956
253.461	0.1991
253.6758	0.1988
253.8906	0.193
254.1053	0.1937
254.3201	0.1932
254.5348	0.1837
254.7496	0.1818
254.9643	0.1883
255.179	0.1894
255.3937	0.1947
255.6083	0.1916
255.823	0.1857
256.0377	0.1791
256.2523	0.1817
256.467	0.1829
256.6816	0.1816
256.8962	0.1765
257.1108	0.1776
257.3254	0.1819
257.54	0.179
257.7545	0.179
257.9691	0.1833
258.1836	0.1771
258.3981	0.1818
258.6127	0.1741
258.8272	0.1811
259.0417	0.1746
259.2561	0.1749
259.4706	0.1743
259.6851	0.1731
259.8995	0.1742
260.114	0.1861
260.3284	0.1695
260.5428	0.1814
260.7572	0.1731
260.9716	0.1807
261.186	0.1731
261.4003	0.1669
261.6147	0.1765
261.829	0.1778
262.0433	0.1717
262.2577	0.1729
262.472	0.18
262.6863	0.1817
262.9005	0.1727
263.1148	0.1725
263.3291	0.1746
263.5433	0.1781
263.7576	0.1773
263.9718	0.1774
264.186	0.177
264.4002	0.1772
264.6144	0.1848
264.8286	0.1835
265.0427	0.1798
265.2569	0.1773
265.471	0.174
265.6851	0.1798
265.8993	0.181
266.1134	0.1784
266.3275	0.1798
266.5415	0.1819
266.7556	0.1795
266.9697	0.1773
267.1837	0.1747
267.3978	0.1773
267.6118	0.1767
267.8258	0.176
268.0398	0.1842
268.2538	0.1798
268.4677	0.1722
268.6817	0.1772
268.8957	0.1729
269.1096	0.1682
269.3235	0.1764
269.5374	0.1756
269.7514	0.1689
269.9652	0.171
270.1791	0.1657
270.393	0.1706
270.6068	0.1706
270.8207	0.1675
271.0345	0.1666
271.2483	0.1655
271.4622	0.1695
271.676	0.165
271.8897	0.169
272.1035	0.1707
272.3173	0.1663
272.531	0.1616
272.7448	0.1623
272.9585	0.1652
273.1722	0.1688
273.3859	0.1672
273.5996	0.1719
273.8133	0.1702
274.0269	0.1624
274.2406	0.1677
274.4542	0.1653
274.6679	0.1713
274.8815	0.169
275.0951	0.1744
275.3087	0.1677
275.5223	0.1681
275.7358	0.171
275.9494	0.1788
276.1629	0.1718
276.3765	0.1718
276.59	0.1641
276.8035	0.1679
277.017	0.1795
277.2305	0.1692
277.444	0.1701
277.6574	0.1699
277.8709	0.1768
278.0843	0.1774
278.2978	0.1725
278.5112	0.1681
278.7246	0.1751
278.938	0.174
279.1513	0.1752
279.3647	0.171
279.5781	0.1725
279.7914	0.1703
280.0047	0.1751
280.2181	0.1716
280.4314	0.1766
280.6447	0.1829
280.8579	0.1709
281.0712	0.1772
281.2845	0.1772
281.4977	0.1751
281.711	0.1727
281.9242	0.1758
282.1374	0.1767
282.3506	0.183
282.5638	0.1788
282.7769	0.1781
282.9901	0.178
283.2033	0.1784
283.4164	0.1781
283.6295	0.176
283.8426	0.1772
284.0557	0.188
284.2688	0.1873
284.4819	0.1762
284.695	0.1887
284.908	0.1771
285.1211	0.1846
285.3341	0.1806
285.5471	0.1827
285.7601	0.1869
285.9731	0.1832
286.1861	0.1874
286.3991	0.1925
286.612	0.1824
286.825	0.1877
287.0379	0.1855
287.2508	0.1919
287.4637	0.1922
287.6766	0.183
287.8895	0.1862
288.1024	0.1872
288.3152	0.1911
288.5281	0.1881
288.7409	0.1927
288.9538	0.1878
289.1666	0.1883
289.3794	0.1872
289.5922	0.1911
289.8049	0.1912
290.0177	0.1926
290.2304	0.1923
290.4432	0.1924
290.6559	0.1919
290.8686	0.1929
291.0813	0.1938
291.294	0.1955
291.5067	0.1907
291.7194	0.1931
291.932	0.1897
292.1447	0.1955
292.3573	0.1954
292.5699	0.1961
292.7825	0.1895
292.9951	0.1944
293.2077	0.1939
293.4203	0.1932
293.6328	0.1955
293.8454	0.1999
294.0579	0.1944
294.2704	0.1998
294.4829	0.1908
294.6954	0.1958
294.9079	0.1937
295.1204	0.1907
295.3328	0.2005
295.5453	0.1974
295.7577	0.1986
295.9701	0.1983
296.1825	0.1973
296.3949	0.1896
296.6073	0.19
296.8197	0.1993
297.0321	0.2029
297.2444	0.1877
297.4567	0.2012
297.6691	0.1963
297.8814	0.1928
298.0937	0.196
298.306	0.1917
298.5182	0.1986
298.7305	0.1968
298.9428	0.1939
299.155	0.1929
299.3672	0.1911
299.5794	0.1937
299.7916	0.1978
300.0038	0.1918
300.216	0.1905
300.4282	0.1905
300.6403	0.1983
300.8525	0.1919
301.0646	0.1957
301.2767	0.1952
301.4888	0.191
301.7009	0.1943
301.913	0.195
302.125	0.1937
302.3371	0.1943
302.5491	0.1927
302.7612	0.1993
302.9732	0.1978
303.1852	0.1922
303.3972	0.2013
303.6092	0.1921
303.8211	0.1927
304.0331	0.1877
304.245	0.1882
304.457	0.1895
304.6689	0.1892
304.8808	0.1875
305.0927	0.1901
305.3046	0.183
305.5164	0.1816
305.7283	0.1799
305.9401	0.1758
306.152	0.18
306.3638	0.1777
306.5756	0.1795
306.7874	0.1743
306.9992	0.1764
307.2109	0.1746
307.4227	0.1766
307.6344	0.1791
307.8462	0.1643
308.0579	0.1729
308.2696	0.1719
308.4813	0.1691
308.693	0.1658
308.9046	0.169
309.1163	0.1584
309.328	0.155
309.5396	0.1568
309.7512	0.1604
309.9628	0.1548
310.1744	0.1447
310.386	0.1481
310.5976	0.1494
310.8091	0.1492
311.0207	0.1442
311.2322	0.1442
311.4437	0.14
311.6552	0.1442
311.8667	0.1451
312.0782	0.1374
312.2897	0.1366
312.5012	0.1403
312.7126	0.1321
312.924	0.1435
313.1355	0.1335
313.3469	0.133
313.5583	0.1273
313.7696	0.1335
313.981	0.1368
314.1924	0.1301
314.4037	0.1305
314.6151	0.129
314.8264	0.1384
315.0377	0.1288
315.249	0.1289
315.4603	0.1282
315.6716	0.1333
315.8828	0.1286
316.0941	0.1266
316.3053	0.1209
316.5165	0.1186
316.7277	0.1192
316.9389	0.1315
317.1501	0.1231
317.3613	0.1208
317.5724	0.122
317.7836	0.1173
317.9947	0.1176
318.2058	0.1203
318.417	0.1242
318.6281	0.1194
318.8391	0.1232
319.0502	0.1194
319.2613	0.1221
319.4723	0.1148
319.6834	0.1238
319.8944	0.1206
320.1054	0.122
320.3164	0.1204
320.5274	0.1133
320.7383	0.1227
320.9493	0.1178
321.1602	0.1188
321.3712	0.1198
321.5821	0.1176
321.793	0.1255
322.0039	0.1217
322.2148	0.1194
322.4257	0.116
322.6365	0.1179
322.8474	0.1278
323.0582	0.1209
323.269	0.1199
323.4798	0.1226
323.6906	0.119
323.9014	0.1232
324.1122	0.1202
324.3229	0.1211
324.5337	0.1256
324.7444	0.1181
324.9551	0.1189
325.1658	0.1194
325.3765	0.1237
325.5872	0.1223
325.7979	0.1186
326.0085	0.1209
326.2192	0.1214
326.4298	0.1237
326.6404	0.1234
326.851	0.1214
327.0616	0.1243
327.2722	0.1247
327.4828	0.1275
327.6933	0.1336
327.9039	0.1276
328.1144	0.1262
328.3249	0.1249
328.5354	0.1293
328.7459	0.1239
328.9564	0.13
329.1669	0.1363
329.3773	0.1318
329.5878	0.1205
329.7982	0.1264
330.0086	0.1303
330.219	0.13
330.4294	0.1312
330.6398	0.1285
330.8502	0.1305
331.0605	0.1224
331.2708	0.1231
331.4812	0.129
331.6915	0.1318
331.9018	0.1285
332.1121	0.1353
332.3224	0.1283
332.5326	0.1246
332.7429	0.1275
332.9531	0.1325
333.1633	0.1309
333.3735	0.1269
333.5837	0.1315
333.7939	0.1317
334.0041	0.1333
334.2143	0.1262
334.4244	0.1388
334.6346	0.1332
334.8447	0.1221
335.0548	0.1336
335.2649	0.1385
335.475	0.133
335.685	0.1393
335.8951	0.1339
336.1051	0.1376
336.3152	0.1382
336.5252	0.1325
336.7352	0.1368
336.9452	0.1351
337.1552	0.1357
337.3652	0.1332
337.5751	0.1338
337.7851	0.1333
337.995	0.1369
338.2049	0.1388
338.4148	0.1406
338.6247	0.1348
338.8346	0.1365
339.0445	0.1406
339.2543	0.1387
339.4642	0.1335
339.674	0.1374
339.8838	0.1393
340.0936	0.1368
340.3034	0.1389
340.5132	0.1329
340.7229	0.1416
340.9327	0.1395
341.1424	0.1407
341.3522	0.1389
341.5619	0.1403
341.7716	0.1482
341.9813	0.1464
342.1909	0.1419
342.4006	0.1414
342.6102	0.1432
342.8199	0.1494
343.0295	0.1415
343.2391	0.1471
343.4487	0.1512
343.6583	0.1523
343.8679	0.1464
344.0774	0.1472
344.287	0.1469
344.4965	0.1531
344.706	0.1468
344.9155	0.1511
345.125	0.1457
345.3345	0.16
345.544	0.1496
345.7534	0.159
345.9629	0.1598
346.1723	0.1601
346.3817	0.1561
346.5911	0.1589
346.8005	0.1569
347.0099	0.1638
347.2193	0.1649
347.4286	0.1669
347.638	0.1721
347.8473	0.1593
348.0566	0.1589
348.2659	0.158
348.4752	0.164
348.6845	0.1661
348.8937	0.1637
349.103	0.1622
349.3122	0.1639
349.5214	0.1656
349.7306	0.1682
349.9398	0.1652
350.149	0.1653
350.3582	0.1681
350.5674	0.1731
350.7765	0.1761
350.9856	0.1703
351.1948	0.1698
351.4039	0.1783
351.613	0.1703
351.822	0.1767
352.0311	0.1761
352.2402	0.1764
352.4492	0.1702
352.6582	0.1802
352.8672	0.183
353.0762	0.1792
353.2852	0.1771
353.4942	0.1838
353.7032	0.1846
353.9121	0.179
354.1211	0.1803
354.33	0.1845
354.5389	0.1759
354.7478	0.1822
354.9567	0.1865
355.1655	0.1864
355.3744	0.1806
355.5833	0.1845
355.7921	0.1865
356.0009	0.1824
356.2097	0.1803
356.4185	0.1788
356.6273	0.1908
356.8361	0.1918
357.0448	0.192
357.2536	0.1926
357.4623	0.1906
357.671	0.193
357.8797	0.1904
358.0884	0.1891
358.2971	0.195
358.5057	0.1982
358.7144	0.1923
358.923	0.205
359.1316	0.2001
359.3402	0.1989
359.5488	0.1967
359.7574	0.2038
359.966	0.2032
360.1746	0.2024
360.3831	0.2068
360.5916	0.2043
360.8002	0.2051
361.0087	0.2025
361.2172	0.2085
361.4256	0.2087
361.6341	0.2184
361.8426	0.2166
362.051	0.2171
362.2594	0.2109
362.4678	0.2224
362.6762	0.2156
362.8846	0.2173
363.093	0.2257
363.3014	0.2304
363.5097	0.2223
363.718	0.2232
363.9264	0.2212
364.1347	0.2233
364.343	0.2292
364.5513	0.2166
364.7595	0.2291
364.9678	0.2244
365.176	0.2238
365.3842	0.236
365.5925	0.2335
365.8007	0.2317
366.0089	0.2381
366.217	0.2294
366.4252	0.2381
366.6333	0.2337
366.8415	0.2425
367.0496	0.2334
367.2577	0.2424
367.4658	0.2367
367.6739	0.236
367.882	0.2413
368.09	0.2448
368.2981	0.2463
368.5061	0.2496
368.7141	0.2429
368.9221	0.2548
369.1301	0.249
369.3381	0.2539
369.5461	0.2558
369.754	0.2525
369.962	0.2467
370.1699	0.2563
370.3778	0.2669
370.5857	0.2586
370.7936	0.2654
371.0015	0.2657
371.2093	0.2582
371.4172	0.2565
371.625	0.2646
371.8328	0.2591
372.0406	0.2615
372.2484	0.2704
372.4562	0.2624
372.664	0.261
372.8717	0.2626
373.0795	0.2743
373.2872	0.2779
373.4949	0.2741
373.7026	0.2694
373.9103	0.2711
374.118	0.2703
374.3256	0.2778
374.5333	0.2761
374.7409	0.2722
374.9485	0.2717
375.1561	0.2771
375.3637	0.2723
375.5713	0.2709
375.7789	0.2725
375.9864	0.2845
376.194	0.2804
376.4015	0.2782
376.609	0.2912
376.8165	0.2803
377.024	0.2784
377.2315	0.2803
377.4389	0.2791
377.6464	0.2972
377.8538	0.2871
378.0612	0.2888
378.2686	0.2905
378.476	0.2889
378.6834	0.2872
378.8908	0.2932
379.0981	0.2903
379.3055	0.2967
379.5128	0.2911
379.7201	0.2991
379.9274	0.2959
380.1347	0.294
380.342	0.3016
380.5492	0.3038
380.7565	0.2956
380.9637	0.3
381.1709	0.2944
381.3781	0.3084
381.5853	0.2992
381.7925	0.3024
381.9997	0.3072
382.2068	0.2986
382.4139	0.2986
382.6211	0.306
382.8282	0.315
383.0353	0.3092
383.2424	0.3
383.4494	0.312
383.6565	0.3054
383.8635	0.3091
384.0706	0.3166
384.2776	0.3037
384.4846	0.3025
384.6916	0.3102
384.8986	0.3143
385.1055	0.3146
385.3125	0.3208
385.5194	0.3096
385.7263	0.3107
385.9333	0.3166
386.1402	0.3145
386.347	0.3046
386.5539	0.3193
386.7608	0.3128
386.9676	0.3182
387.1744	0.3116
387.3813	0.3101
387.5881	0.3032
387.7948	0.3212
388.0016	0.3335
388.2084	0.3137
388.4151	0.3187
388.6219	0.3007
388.8286	0.3096
389.0353	0.3111
389.242	0.3151
389.4487	0.3134
389.6553	0.2941
389.862	0.3001
390.0686	0.3002
390.2753	0.3075
390.4819	0.3129
390.6885	0.2982
390.8951	0.2947
391.1016	0.3074
391.3082	0.303
391.5147	0.2919
391.7213	0.2962
391.9278	0.2963
392.1343	0.3087
392.3408	0.2959
392.5473	0.2964
392.7537	0.2905
392.9602	0.2926
393.1666	0.2924
393.373	0.2876
393.5794	0.2914
393.7858	0.2938
393.9922	0.2901
394.1986	0.2759
394.4049	0.2875
394.6113	0.2804
394.8176	0.2874
395.0239	0.2761
395.2302	0.2797
395.4365	0.2795
395.6428	0.281
395.8491	0.273
396.0553	0.2658
396.2615	0.2705
396.4678	0.2808
396.674	0.2718
396.8802	0.2686
397.0863	0.2677
397.2925	0.2669
397.4987	0.2687
397.7048	0.2739
397.9109	0.2637
398.117	0.2659
398.3231	0.2649
398.5292	0.2548
398.7353	0.2659
398.9413	0.2731
399.1474	0.266
399.3534	0.2597
399.5594	0.2721
399.7654	0.2638
399.9714	0.2659
400.1774	0.2719
400.3833	0.2751
400.5893	0.266
400.7952	0.2764
401.0011	0.2692
401.207	0.264
401.4129	0.264
401.6188	0.2692
401.8247	0.2743
402.0305	0.2599
402.2364	0.2689
402.4422	0.2689
402.648	0.2744
402.8538	0.2611
403.0596	0.2628
403.2654	0.2631
403.4711	0.2527
403.6768	0.2649
403.8826	0.2776
404.0883	0.2636
404.294	0.2629
404.4997	0.2642
404.7054	0.2654
404.911	0.2669
405.1167	0.2641
405.3223	0.2572
405.5279	0.2709
405.7335	0.2649
405.9391	0.2517
406.1447	0.2636
406.3502	0.2705
406.5558	0.262
406.7613	0.2625
406.9668	0.2649
407.1724	0.2667
407.3778	0.2677
407.5833	0.2581
407.7888	0.2747
407.9942	0.2621
408.1997	0.2746
408.4051	0.2616
408.6105	0.2651
408.8159	0.2606
409.0213	0.267
409.2267	0.2719
409.432	0.2711
409.6374	0.266
409.8427	0.272
410.048	0.274
410.2533	0.2617
410.4586	0.257
410.6639	0.2704
410.8691	0.2578
411.0744	0.2607
411.2796	0.2676
411.4848	0.2622
411.69	0.2685
411.8952	0.2582
412.1004	0.2627
412.3056	0.2621
412.5107	0.2678
412.7158	0.2622
412.921	0.2646
413.1261	0.2623
413.3312	0.2593
413.5362	0.2728
413.7413	0.2664
413.9464	0.2512
414.1514	0.2625
414.3564	0.2569
414.5614	0.2611
414.7664	0.2618
414.9714	0.2544
415.1764	0.26
415.3813	0.2571
415.5863	0.2606
415.7912	0.2583
415.9961	0.2609
416.201	0.2593
416.4059	0.2586
416.6108	0.2602
416.8156	0.2544
417.0205	0.2516
417.2253	0.2574
417.4301	0.2563
417.6349	0.2559
417.8397	0.2581
418.0445	0.2532
418.2492	0.2496
418.454	0.2417
418.6587	0.2595
418.8634	0.2551
419.0681	0.2553
419.2728	0.2553
419.4775	0.2606
419.6822	0.2457
419.8868	0.2527
420.0915	0.2405
420.2961	0.2497
420.5007	0.261
420.7053	0.2396
420.9099	0.2476
421.1144	0.2394
421.319	0.2476
421.5235	0.2322
421.728	0.2444
421.9325	0.2466
422.137	0.2436
422.3415	0.2408
422.546	0.2344
422.7504	0.2383
422.9549	0.2473
423.1593	0.2417
423.3637	0.2396
423.5681	0.2404
423.7725	0.2344
423.9769	0.2413
424.1812	0.2314
424.3856	0.2156
424.5899	0.2329
424.7942	0.2305
424.9985	0.2273
425.2028	0.2283
425.4071	0.2266
425.6113	0.2285
425.8156	0.2183
426.0198	0.2278
426.224	0.2309
426.4282	0.2202
426.6324	0.2272
426.8366	0.219
427.0407	0.2223
427.2449	0.2185
427.449	0.2164
427.6531	0.2272
427.8572	0.2121
428.0613	0.2137
428.2654	0.2149
428.4694	0.1958
428.6735	0.2038
428.8775	0.2026
429.0815	0.2024
429.2855	0.2041
429.4895	0.1982
429.6935	0.1998
429.8975	0.1942
430.1014	0.2042
430.3053	0.2012
430.5093	0.1966
430.7132	0.182
430.9171	0.1963
431.1209	0.1913
431.3248	0.1839
431.5286	0.1795
431.7325	0.1896
431.9363	0.1829
432.1401	0.1825
432.3439	0.1875
432.5477	0.173
432.7514	0.17
432.9552	0.177
433.1589	0.1663
433.3627	0.1818
433.5664	0.1699
433.7701	0.171
433.9737	0.1787
434.1774	0.1662
434.3811	0.1533
434.5847	0.1623
434.7883	0.1587
434.9919	0.1662
435.1955	0.1498
435.3991	0.1553
435.6027	0.1533
435.8062	0.1672
436.0098	0.1555
436.2133	0.1458
436.4168	0.1593
436.6203	0.1429
436.8238	0.139
437.0272	0.1393
437.2307	0.1395
437.4341	0.1352
437.6375	0.1417
437.841	0.1291
438.0443	0.1502
438.2477	0.1195
438.4511	0.1235
438.6545	0.1316
438.8578	0.1253
439.0611	0.1239
439.2644	0.1206
439.4677	0.127
439.671	0.1128
439.8743	0.1186
440.0775	0.1132
440.2808	0.1119
440.484	0.1122
440.6872	0.1184
440.8904	0.1037
441.0936	0.1093
441.2967	0.1015
441.4999	0.0957
441.703	0.1051
441.9062	0.1023
442.1093	0.1064
442.3124	0.1045
442.5155	0.0941
442.7185	0.0898
442.9216	0.0942
443.1246	0.0807
443.3276	0.0885
443.5307	0.0871
443.7337	0.0856
443.9366	0.0891
444.1396	0.0817
444.3426	0.0791
444.5455	0.0849
444.7484	0.0829
444.9513	0.0803
445.1542	0.0802
445.3571	0.0809
445.56	0.0765
445.7628	0.0795
445.9657	0.0844
446.1685	0.0766
446.3713	0.0806
446.5741	0.0731
446.7769	0.0723
446.9797	0.068
447.1824	0.0719
447.3852	0.0482
447.5879	0.0653
447.7906	0.0527
447.9933	0.0574
448.196	0.061
448.3986	0.0548
448.6013	0.0528
448.8039	0.0565
449.0066	0.0632
449.2092	0.0555
449.4118	0.0576
449.6143	0.055
449.8169	0.0628
450.0195	0.044
450.222	0.0552
450.4245	0.0468
450.627	0.0484
450.8295	0.0442
451.032	0.0454
451.2345	0.0416
451.4369	0.0406
451.6394	0.036
451.8418	0.0448
452.0442	0.037
452.2466	0.0321
452.449	0.0462
452.6513	0.0378
452.8537	0.0326
453.056	0.038
453.2583	0.0384
453.4607	0.0225
453.663	0.0367
453.8652	0.0346
454.0675	0.0347
454.2697	0.0327
454.472	0.0284
454.6742	0.0343
454.8764	0.0332
455.0786	0.024
455.2808	0.032
455.4829	0.0328
455.6851	0.0243
455.8872	0.0248
456.0893	0.0322
456.2915	0.0262
456.4935	0.0328
456.6956	0.031
456.8977	0.021
457.0997	0.0277
457.3018	0.0182
457.5038	0.0231
457.7058	0.0272
457.9078	0.0215
458.1098	0.0341
458.3117	0.0223
458.5137	0.0071
458.7156	0.0236
458.9175	0.0198
459.1194	0.0201
459.3213	0.0154
459.5232	0.0309
459.725	0.0266
459.9269	0.0226
460.1287	0.0253
460.3305	0.0179
460.5323	0.0202
460.7341	0.0185
460.9359	0.0164
461.1376	0.018
461.3394	0.0178
461.5411	0.0251
461.7428	0.0132
461.9445	0.016
462.1462	0.0224
462.3479	0.0053
462.5495	0.0175
462.7512	0.0274
462.9528	0.017
463.1544	0.0115
463.356	0.007
463.5576	0.0176
463.7592	0.0144
463.9607	0.0117
464.1623	0.0045
464.3638	0.0073
464.5653	0.0207
464.7668	0.025
464.9683	0.0133
465.1697	0.0035
465.3712	0.0078
465.5726	0.0039
465.7741	0.0186
465.9755	0.0135
466.1769	0.0152
466.3782	0.0074
466.5796	0.0044
466.7809	0.0072
466.9823	0.0052
467.1836	0.0081
467.3849	0.0056
467.5862	0.0021
467.7875	0.005
467.9887	0.0166
468.19	0.0116
468.3912	0.0171
468.5924	0.0012
468.7936	0.0062
468.9948	0.0053
469.196	0.0038
469.3972	0.003
469.5983	-0.0007
469.7994	0.0161
470.0006	0.0077
470.2017	0.0096
470.4027	0.017
470.6038	0.0185
470.8049	0.0114
471.0059	0.0118
471.2069	0.005
471.408	0.0112
471.6089	0.0126
471.8099	0.015
472.0109	0.0099
472.2119	0.0162
472.4128	0.0026
472.6137	0.0008
472.8146	0.0072
473.0155	0.0182
473.2164	0.0052
473.4173	0.0008
473.6181	0.0002
473.819	0.0085
474.0198	0.001
474.2206	-0.0039
474.4214	0.0043
474.6222	-0.0058
474.8229	0.0024
475.0237	0.012
475.2244	0.0083
475.4251	0.0076
475.6258	-0.0017
475.8265	0.0044
476.0272	-0.007
476.2278	0.0049
476.4285	0.0019
476.6291	0.0018
476.8297	0.0049
477.0303	-0.0044
477.2309	0.004
477.4315	0.0065
477.632	0.0057
477.8326	0.0035
478.0331	0.0032
478.2336	-0.0025
478.4341	0.001
478.6346	0.0024
478.8351	-0.0034
479.0355	0.008
479.236	0.0111
479.4364	-0.0014
479.6368	0.0093
479.8372	0.0088
480.0376	0.0067
480.2379	0.0145
480.4383	0.0086
480.6386	-0.0024
480.8389	0.0067
481.0392	0.006
481.2395	0.006
481.4398	0.0096
481.6401	0.0036
481.8403	0.0001
482.0405	0.008
482.2408	0.0076
482.441	0.0006
482.6411	0.0011
482.8413	0.0016
483.0415	0.0047
483.2416	0.0014
483.4417	0.004
483.6419	0.0001
483.8419	0.0026
484.042	0.0054
484.2421	0.0031
484.4422	0.0011
484.6422	0.0041
484.8422	0.0026
485.0422	0.0058
485.2422	0.0027
485.4422	0.0023
485.6422	0.0005
485.8421	0.0024
486.042	0.0076
486.242	-0.0001
486.4419	0.007
486.6417	-0.0003
486.8416	0.0021
487.0415	0.0011
487.2413	-0.0052
487.4411	0.0031
487.641	0.0041
487.8408	0.0116
488.0405	0.0135
488.2403	-0.0076
488.4401	-0.0031
488.6398	0.0098
488.8395	0.0054
489.0392	0.0095
489.2389	0.0024
489.4386	-0.006
489.6383	0.0057
489.8379	-0.0057
490.0376	-0.0029
490.2372	-0.0122
490.4368	-0.0048
490.6364	-0.0013
490.836	0.0031
491.0355	-0.0053
491.2351	0.0033
491.4346	0.006
491.6341	-0.0057
491.8336	-0.0017
492.0331	-0.0007
492.2326	0.0041
492.432	-0.0053
492.6315	0.0017
492.8309	0.0062
493.0303	0.0022
493.2297	0.0023
493.4291	-0.0077
493.6284	0.01
493.8278	-0.0017
494.0271	-0.0008
494.2264	-0.0023
494.4257	-0.0007
494.625	-0.0045
494.8243	0.0006
495.0236	0.0008
495.2228	0.0023
495.422	0.003
495.6213	0.0032
495.8205	0.0044
496.0196	0.0004
496.2188	0.0002
496.418	0.0034
496.6171	-0.0092
496.8162	0.0025
497.0153	0.0028
497.2144	-0.0007
497.4135	0.0073
497.6126	-0.0025
497.8116	-0.004
498.0107	-0.0032
498.2097	0.0048
498.4087	0.0032
498.6077	-0.0003
498.8067	0.0031
499.0056	0.0025
499.2046	-0.0016
499.4035	-0.0034
499.6024	-0.0032
499.8013	-0.0015
500.0002	0.0017
500.199	-0.0007
500.3979	-0.0047
500.5967	-0.0048
500.7956	0.0063
500.9944	0.0006
501.1932	0.0086
501.3919	-0.0011
501.5907	0.0024
501.7895	0.0032
501.9882	-0.0034
502.1869	0.0134
502.3856	0.0017
502.5843	-0.0017
502.783	0.0024
502.9816	0.0075
503.1803	-0.0004
503.3789	0.0093
503.5775	0.0045
503.7761	-0.0006
503.9747	0.0028
504.1732	-0.0096
504.3718	0.0065
504.5703	0.007
504.7689	-0.0041
504.9674	-0.0064
505.1658	0.0015
505.3643	-0.0002
505.5628	0.0051
505.7612	0.0028
505.9597	0.0015
506.1581	0.0069
506.3565	-0.0005
506.5549	0.0011
506.7532	-0.0022
506.9516	-0.0015
507.1499	0.0002
507.3482	-0.0002
507.5465	-0.0056
507.7448	0.0024
507.9431	0.0067
508.1414	0.0019
508.3396	0.0011
508.5379	-0.0054
508.7361	-0.0021
508.9343	-0.0018
509.1325	0.0019
509.3306	-0.0005
509.5288	-0.0019
509.7269	0.0002
509.9251	0.0091
510.1232	0.0064
510.3213	-0.0007
510.5193	0.0052
510.7174	-0.0031
510.9154	0.0026
511.1135	-0.0017
511.3115	0.0027
511.5095	-0.0057
511.7075	0.002
511.9055	0.0016
512.1034	-0.0024
512.3014	-0.0059
512.4993	-0.0025
512.6972	-0.0078
512.8951	0.003
513.093	-0.0013
513.2908	0.0117
513.4887	-0.0002
513.6865	0.0044
513.8844	0.0069
514.0822	-0.0026
514.2799	0.0023
514.4777	-0.0074
514.6755	-0.0028
514.8732	-0.0067
515.0709	-0.0012
515.2687	0.0014
515.4664	0.0073
515.664	-0.0088
515.8617	0.0068
516.0594	-0.0009
516.257	0.0024
516.4546	0.0129
516.6522	0.0025
516.8498	-0.0009
517.0474	-0.0015
517.2449	-0.0052
517.4425	-0.0003
517.64	0.0016
517.8375	0.0024
518.035	-0.0053
518.2325	-0.0147
518.43	-0.0017
518.6274	-0.0015
518.8249	-0.0098
519.0223	0.0044
519.2197	-0.0091
519.4171	-0.0107
519.6145	0.0042
519.8118	-0.0214
520.0092	-0.0109
520.2065	-0.0003
520.4038	-0.0008
520.6011	0.0026
520.7984	0.003
520.9956	0.0026
521.1929	-0.0028
521.3901	0.0009
521.5874	-0.0032
521.7846	-0.0123
521.9818	-0.0007
522.1789	-0.0139
522.3761	0.01
522.5732	-0.0023
522.7704	-0.0095
522.9675	-0.0061
523.1646	-0.0008
523.3617	0.0031
523.5587	-0.0046
523.7558	0.0067
523.9528	0.0054
524.1498	0.0002
524.3468	0.0051
524.5438	-0.0028
524.7408	-0.003
524.9378	-0.0016
525.1347	0.0025
525.3316	-0.0022
525.5285	-0.0065
525.7254	-0.0005
525.9223	0.0072
526.1192	0.0049
526.316	-0.0053
526.5129	-0.0049
526.7097	-0.0052
526.9065	0.0051
527.1033	0.0007
527.3	-0.0049
527.4968	0.0148
527.6935	-0.0092
527.8903	-0.0033
528.087	-0.0048
528.2837	0.0085
528.4804	0.0032
528.677	0.0036
528.8737	0.0001
529.0703	0.005
529.2669	0.0095
529.4635	-0.0091
529.6601	-0.0098
529.8567	-0.0073
530.0532	-0.0024
530.2498	0.0046
530.4463	-0.0181
530.6428	0.0025
530.8393	-0.0009
531.0358	-0.0033
531.2322	0.0027
531.4287	0.0046
531.6251	-0.0036
531.8215	-0.012
532.0179	0.0072
532.2143	0.0053
532.4107	0.0027
532.607	-0.0076
532.8034	-0.0019
532.9997	-0.0106
533.196	-0.0064
533.3923	0.0024
533.5886	0.0006
533.7848	-0
533.9811	0.0048
534.1773	-0.0044
534.3735	-0.0036
534.5697	0.0007
534.7659	0.0058
534.9621	0.0002
535.1582	0.0035
535.3544	0.0036
535.5505	0.0038
535.7466	0.0087
535.9427	0.0002
536.1387	0.0003
536.3348	0.0045
536.5308	-0.0049
536.7269	0.003
536.9229	-0.0019
537.1189	0.0026
537.3148	0.0005
537.5108	0.0001
537.7068	0.009
537.9027	-0.002
538.0986	0.0054
538.2945	-0.0028
538.4904	-0.0002
538.6863	-0.0009
538.8821	0.0042
539.078	0.0001
539.2738	-0.0041
539.4696	-0.0153
539.6654	0.0069
539.8611	-0.0025
540.0569	0.0025
540.2526	0.0036
540.4484	-0.0067
540.6441	0.0026
540.8398	0.0037
541.0355	0.0024
541.2311	0.0016
541.4268	0.0024
541.6224	0.0097
541.818	0.0026
542.0136	0.0082
542.2092	-0.0013
542.4048	0.0097
542.6003	0.0039
542.7959	-0.0007
542.9914	0.0016
543.1869	0.0026
543.3824	0.007
543.5779	0.0035
543.7734	0.0119
543.9688	-0.0007
544.1642	-0.0024
544.3596	0.0046
544.555	0.0042
544.7504	0.0056
544.9458	-0
545.1411	0.0008
545.3365	0.0004
545.5318	-0.0083
545.7271	0.0075
545.9224	-0.0026
546.1177	0.0077
546.3129	-0.0035
546.5081	-0.0042
546.7034	0.0045
546.8986	0.0086
547.0938	0.0082
547.289	0.0042
547.4841	0.004
547.6793	-0.0032
547.8744	0.0085
548.0695	-0.0035
548.2646	0.0024
548.4597	-0.0053
548.6548	0.0106
548.8498	0.0094
549.0448	-0.0045
549.2399	0.0028
549.4349	0.0023
549.6298	0.0126
549.8248	-0.0148
550.0198	0.005
550.2147	0.0088
550.4096	-0.0156
550.6045	-0.0016
550.7994	0.0073
550.9943	-0.0021
551.1892	-0.0152
551.384	0.0107
551.5788	0.0037
551.7737	0.0073
551.9685	0.0037
552.1632	-0.0026
552.358	0.0019
552.5528	-0.0028
552.7475	0.0009
552.9422	0.0084
553.1369	0.0035
553.3316	0.0045
553.5263	0.0084
553.7209	0.0045
553.9156	-0.0062
554.1102	0.0008
554.3048	-0.0104
554.4994	0.0029
554.694	0.0035
554.8885	0.0074
555.0831	0.0076
555.2776	0.002
555.4721	0.0022
555.6666	-0.0009
555.8611	0.0033
556.0555	0.0026
556.25	0.0034
556.4444	-0.0043
556.6388	-0.0052
556.8332	-0.0001
557.0276	0.0061
557.222	-0.0027
557.4163	0.0075
557.6107	0.0007
557.805	0.0026
557.9993	0.0048
558.1936	-0.0093
558.3879	0.0048
558.5821	-0.0048
558.7764	0.0008
558.9706	-0.0042
559.1648	0.0099
559.359	-0.0007
559.5532	-0.0062
559.7473	-0.0067
559.9415	-0.0017
560.1356	0.0143
560.3297	-0.0073
560.5238	0.0054
560.7179	0.0076
560.9119	0.0006
561.106	0.0004
561.3	0.0096
561.494	0.001
561.688	-0.008
561.882	-0.0028
562.076	0.001
562.2699	0.0091
562.4639	0.0149
562.6578	0.0041
562.8517	0.0009
563.0456	0.0045
563.2395	-0.0016
563.4333	0.0012
563.6272	0.002
563.821	0.0068
564.0148	-0.0008
564.2086	0.0025
564.4024	0.0107
564.5961	0.0056
564.7899	0.011
564.9836	0.0076
565.1773	0.007
565.371	0.0016
565.5647	0.0057
565.7584	0.0145
565.952	0.0002
566.1456	0.0004
566.3393	0.0072
566.5329	0.0023
566.7264	0.0073
566.92	0.0029
567.1136	0.0018
567.3071	-0.0115
567.5006	0.0062
567.6941	0.0007
567.8876	0.0061
568.0811	0.0133
568.2745	-0.0034
568.468	0.0074
568.6614	0.013
568.8548	0.0062
569.0482	0.0057
569.2416	0.0024
569.4349	0.002
569.6283	0.0042
569.8216	0.0106
570.0149	0.0008
570.2082	0.0092
570.4015	0.0083
570.5947	0.0031
570.788	0.0057
570.9812	0.001
571.1744	0.0015
571.3676	0.0065
571.5608	0.0005
571.754	0.0067
571.9471	0.0057
572.1402	0.0023
572.3333	0.0069
572.5264	0.0038
572.7195	0.0035
572.9126	0.0045
573.1057	0.0055
573.2987	0.0038
573.4917	0.0016
573.6847	-0.0007
573.8777	0.0045
574.0707	0.0002
574.2636	0.002
574.4566	-0.0023
574.6495	0.0034
574.8424	0.0045
575.0353	0.0093
575.2281	0.0032
575.421	0.0009
575.6138	-0.0048
575.8067	0.0078
575.9995	0.0053
576.1923	0.0079
576.385	0.008
576.5778	0.0045
576.7706	0.0061
576.9633	0.0058
577.156	-0.0029
577.3487	0.0032
577.5414	0.0009
577.734	0.0004
577.9267	0.0063
578.1193	0.0092
578.3119	0.004
578.5045	0.0053
578.6971	0.0027
578.8897	0.0009
579.0822	0.008
579.2747	0.0009
579.4673	0.0013
579.6598	0.0067
579.8522	0.0027
580.0447	0.0059
580.2372	0.0096
580.4296	0.01
580.622	0.0009
580.8144	0.0064
581.0068	0.005
581.1992	0.0041
581.3915	0
581.5839	0.0037
581.7762	0.0033
581.9685	-0.001
582.1608	0.002
582.353	0.0046
582.5453	0.0069
582.7375	0.0082
582.9298	-0.0018
583.122	0.0002
583.3142	0.0095
583.5063	-0.0003
583.6985	0.0012
583.8906	-0.0009
584.0827	0.0055
584.2749	-0.0007
584.4669	0.0039
584.659	0.0089
584.8511	0.0119
585.0431	0.0079
585.2352	0.0055
585.4272	0.0044
585.6192	0.0054
585.8111	0.0056
586.0031	0.0028
586.195	0.0056
586.387	0.0026
586.5789	0.0101
586.7708	0.0107
586.9627	0.0053
587.1545	0.0054
587.3464	0.0028
587.5382	0.0028
587.73	0.0076
587.9218	0.0017
588.1136	0.0001
588.3053	0.0037
588.4971	0.0044
588.6888	0
588.8805	-0
589.0722	0.0081
589.2639	-0.0014
589.4556	0.0082
589.6472	0.0102
589.8389	0.0034
590.0305	-0.0039
590.2221	0.0075
590.4137	-0.001
590.6052	0.0012
590.7968	0.0032
590.9883	0.0038
591.1798	0.0034
591.3713	0.003
591.5628	0.0073
591.7543	-0.0008
591.9458	-0.0018
592.1372	0.0066
592.3286	0.0043
592.52	0.0005
592.7114	0.0063
592.9028	0.0083
593.0941	0.0006
593.2855	-0.0024
593.4768	0.0075
593.6681	0.0119
593.8594	0.0075
594.0506	0.0048
594.2419	0.0059
594.4331	0.0046
594.6244	-0.0035
594.8156	-0.0013
595.0067	0.0008
595.1979	0.0017
595.3891	0.0091
595.5802	0.0102
595.7713	0.0013
595.9624	0.0117
596.1535	0.0024
596.3446	0.0042
596.5357	0.0068
596.7267	-0.0038
596.9177	-0.0003
597.1087	0.0046
597.2997	0.0092
597.4907	0
597.6817	0.0033
597.8726	0.009
598.0635	0.0013
598.2544	0.0095
598.4453	0.0048
598.6362	0.0042
598.827	0.0047
599.0179	0.0053
599.2087	0.0066
599.3995	0.0078
599.5903	0.0062
599.7811	0.0123
599.9718	0.0068
600.1626	0.0001
600.3533	0.0052
600.544	0.0111
600.7347	0.0041
600.9254	0.0086
601.116	0.0082
601.3067	0.007
601.4973	0.0091
601.6879	0.0011
601.8785	0.0074
602.0691	-0.0008
602.2596	0.0013
602.4502	0.0099
602.6407	0.0051
602.8312	0.0035
603.0217	0.0069
603.2122	0.0058
603.4027	0.0038
603.5931	-0.0002
603.7835	0.0079
603.9739	0.0033
604.1643	0.0095
604.3547	0.0096
604.5451	0.0088
604.7354	-0.0035
604.9257	0.0008
605.116	-0.0017
605.3063	0.0009
605.4966	0.002
605.6869	0.0068
605.8771	0.0073
606.0673	0.0012
606.2575	-0.002
606.4477	0.0105
606.6379	-0.0004
606.8281	0.0077
607.0182	0.0041
607.2083	0.0039
607.3985	0.0017
607.5885	0.0034
607.7786	0.0085
607.9687	0.0052
608.1587	-0.0008
608.3488	0.006
608.5388	0.0009
608.7288	0.0016
608.9187	-0.0002
609.1087	0.0065
609.2986	0.0069
609.4886	-0.0004
609.6785	0.0107
609.8684	0.0037
610.0582	0.0019
610.2481	-0.0033
610.4379	0.0073
610.6278	0.0085
610.8176	0.0119
611.0074	-0.001
611.1971	0.0024
611.3869	0.0005
611.5766	-0.0051
611.7664	0.0102
611.9561	0.0055
612.1458	0.0078
612.3354	0.0031
612.5251	0.0036
612.7147	0.0035
612.9044	0.0025
613.094	0.005
613.2836	-0.0038
613.4731	-0.0055
613.6627	0.0158
613.8522	0.0038
614.0417	0.0109
614.2313	0.0019
614.4207	0.0007
614.6102	0.0112
614.7997	0.014
614.9891	-0.0003
615.1785	-0.0084
615.3679	0.0052
615.5573	0.003
615.7467	-0.0009
615.9361	-0.002
616.1254	0.009
616.3147	0.0056
616.504	-0.0003
616.6933	-0.0007
616.8826	0.004
617.0718	0.0058
617.2611	0.0035
617.4503	0.0043
617.6395	0.0078
617.8287	0.0122
618.0179	0.0035
618.207	0.0081
618.3961	0.0033
618.5853	0.0078
618.7744	0.0065
618.9634	0.0006
619.1525	0.0017
619.3416	-0.0015
619.5306	0.0066
619.7196	0.0064
619.9086	0.0036
620.0976	-0.0025
620.2866	0.0085
620.4755	-0.0053
620.6645	0.0081
620.8534	0.0019
621.0423	-0.001
621.2312	0.0092
621.42	0.0076
621.6089	-0.0028
621.7977	-0.0023
621.9865	-0.0029
622.1753	-0.0076
622.3641	0.0004
622.5529	-0.0006
622.7416	0.0025
622.9303	-0.005
623.1191	0.0045
623.3078	0.0031
623.4964	0.0059
623.6851	0.0065
623.8737	0.0005
624.0624	-0.0084
624.251	-0
624.4396	0.0011
624.6282	0.0125
624.8167	-0.0057
625.0053	0.0117
625.1938	0.0048
625.3823	0.0011
625.5708	-0.0094
625.7593	-0.0031
625.9477	0.0093
626.1362	0.0028
626.3246	-0.0007
626.513	0.0122
626.7014	0.0017
626.8898	-0.0003
627.0781	-0.0002
627.2665	0.0055
627.4548	-0.0067
627.6431	0.0108
627.8314	0.0218
628.0197	-0.0039
628.2079	-0.0035
628.3962	0.0067
628.5844	0.0089
628.7726	-0.0038
628.9608	0.0062
629.1489	0.0032
629.3371	0.0046
629.5252	0.0015
629.7134	-0.0148
629.9015	0.0082
630.0895	-0.0063
630.2776	0.0083
630.4657	0.0048
630.6537	-0.0069
630.8417	-0.0059
631.0297	0.0018
631.2177	0.0105
631.4057	-0.0067
631.5936	0.005
631.7815	0.0069
631.9695	0.0134
632.1574	-0.006
632.3452	0.0138
632.5331	0.0048
632.7209	0.0044
632.9088	0.0106
633.0966	0.0078
633.2844	0.0069
633.4722	0.0216
633.6599	0.0197
633.8477	0.0009
634.0354	0.0094
634.2231	-0.0022
634.4108	-0.0027
634.5985	0.0064
634.7861	0.0008
634.9738	-0.0058
635.1614	0.0083
635.349	0.0111
635.5366	0.006
635.7242	0.0023
635.9117	0.0063
636.0993	0.006
636.2868	-0.0075
636.4743	0.006
636.6618	-0.0064
636.8492	0.0102
637.0367	-0.0013
637.2241	0.0064
637.4115	0.0186
637.5989	0.0073
637.7863	0.0259
637.9737	-0.0035
638.161	0.0107
638.3484	-0.0147
638.5357	0.0059
638.723	0.0156
638.9103	-0.0197
639.0975	0.0075
639.2848	0.004
639.472	0.0155
639.6592	-0.0178
639.8464	0.0118
640.0336	-0.0102
640.2208	0.002
640.4079	0.0018
640.595	-0.0116
640.7821	0.0028
640.9692	-0.0095
641.1563	0.0203
641.3434	0.0067
641.5304	0.0103
641.7174	0.0005
641.9044	0.0066
642.0914	0.0107
642.2784	0.0066
642.4653	-0.0089
642.6523	0.004
642.8392	-0.01
643.0261	0.0177
643.213	-0.0012
643.3999	0.0078
643.5867	0.0303
643.7735	-0.0179
643.9604	-0.0033
644.1472	0.0079
644.3339	-0.0092
644.5207	-0.0004
644.7075	0.0095
644.8942	0.0044
645.0809	-0.0041
645.2676	0.0016
645.4543	-0.0095
645.6409	0.0195
645.8276	0.0144
646.0142	0.0384
646.2008	0.0101
646.3874	-0.0024
646.574	0.0059
646.7605	0.0092
646.9471	-0.0296
647.1336	-0.0218
647.3201	-0.0062
647.5066	0.022
647.6931	0.0098
647.8795	-0.0044
648.0659	0.0081
648.2524	0.0095
648.4388	0.0082
648.6252	0.0062
648.8115	0.0046
648.9979	0.0057
649.1842	-0.0003
649.3705	0.0217
649.5568	0.0009
649.7431	0.0121
649.9294	0.0006
650.1156	-0.0277
650.3018	0.0077
650.488	-0.0006
650.6742	0.0105
650.8604	0.0137
651.0466	-0.0004
651.2327	-0.0048
651.4188	-0.0053
651.6049	0.0209
651.791	-0.0064
651.9771	0.0067
652.1632	-0.0072
652.3492	0.007
652.5352	0.0018
652.7212	0.0086
652.9072	-0.0153
653.0932	0.0024
653.2791	0.0093
653.465	0.0081
653.651	0.0082
653.8369	0.0108
654.0227	-0.0156
654.2086	0.0148
654.3944	0.0231
654.5803	-0.0097
654.7661	0.004
654.9519	-0.0058
655.1377	0
655.3234	0
655.5092	0
655.6949	0
655.8806	0
656.0663	0
656.2519	0
656.4376	0
656.6232	0
656.8088	0
656.9945	0
657.18	0
657.3656	0
657.5511	0
657.7367	0
657.9222	0
658.1077	0
658.2932	0
658.4786	0
658.6641	0
658.8495	0
659.0349	0
659.2203	0
659.4057	0
659.591	0.1502
659.7764	0.0187
659.9617	-0.0019
660.147	0.003
660.3323	0.0154
660.5176	0.0005
660.7028	-0.0104
660.888	0.0017
661.0733	0.0022
661.2585	-0.0072
661.4436	0.0016
661.6288	0.0265
661.8139	-0.0137
661.9991	-0.019
662.1842	-0.0004
662.3693	0.0077
662.5544	0.012
662.7394	0.0224
662.9245	-0.0018
663.1095	-0.0021
663.2945	-0.0088
663.4795	-0.0099
663.6644	0.007
663.8494	0.0035
664.0343	0.0207
664.2193	-0.009
664.4042	0.0042
664.589	0.004
664.7739	0.0078
664.9587	-0.0121
665.1436	-0.0093
665.3284	-0.0091
665.5132	-0.0218
665.698	0.0034
665.8827	0.0161
666.0675	-0.0123
666.2522	0.0273
666.4369	0.0014
666.6216	0.0256
666.8063	0.0073
666.9909	-0.0035
667.1756	0.0011
667.3602	-0.0137
667.5448	0.0054
667.7294	0.0197
667.9139	-0.0178
668.0985	0.0217
668.283	-0.0136
668.4675	0.0235
668.652	0.0169
668.8365	-0.0103
669.0209	0.004
669.2054	0.0108
669.3898	0.0208
669.5742	0.0229
669.7586	0.0195
669.943	0.0023
670.1273	0.0036
670.3117	0.016
670.496	-0.0069
670.6803	-0.0152
670.8646	-0.015
671.0488	0.0263
671.2331	-0.014
671.4173	0.0001
671.6015	0.0068
671.7857	0.0093
671.9699	0.0153
672.1541	0.0042
672.3382	-0.0084
672.5223	-0.0026
672.7064	0.0087
672.8905	0.0014
673.0746	0.006
673.2587	0.0089
673.4427	0.0093
673.6267	0.0168
673.8107	0.0119
673.9947	0.0319
674.1787	0.0329
674.3626	0.0168
674.5465	-0.0008
674.7304	0.0194
674.9143	0.0128
675.0982	0.0142
675.2821	0.0145
675.4659	-0.0245
675.6497	0.0007
675.8335	0.0327
676.0173	-0.0066
676.2011	0.0199
676.3849	-0.0011
676.5686	0.016
676.7523	-0.0138
676.936	0.0103
677.1197	0.0138
677.3034	0.0292
677.487	0.0074
677.6706	0.0032
677.8542	0.0124
678.0378	0.006
678.2214	0.0022
678.405	0.0057
678.5885	0.0146
678.772	0.0097
678.9555	0.0058
679.139	0.0171
679.3225	-0.0087
679.5059	0.0007
679.6894	0.0119
679.8728	0.0013
680.0562	0.0153
680.2395	0.0051
680.4229	-0.0056
680.6062	0.0067
680.7896	-0.0134
680.9729	0.0129
681.1562	0.0013
681.3394	-0.0008
681.5227	0.0088
681.7059	0.0089
681.8891	0.0079
682.0723	-0.0057
682.2555	0.0176
682.4387	0.024
682.6218	0.0232
682.805	0.0108
682.9881	0.0157
683.1712	0.0276
683.3542	0.0274
683.5373	-0.0073
683.7203	0.0129
683.9034	-0.0136
684.0864	0.0078
684.2694	0.0025
684.4523	0.001
684.6353	0.003
684.8182	0.0017
685.0011	0.0105
685.184	-0.0041
685.3669	0.0181
685.5498	-0.0044
685.7326	0.0016
685.9154	-0.0076
686.0982	0.0087
686.281	0.0036
686.4638	0.0109
686.6465	0.012
686.8293	-0.0115
687.012	0.019
687.1947	0.0011
687.3774	0.0097
687.56	-0.0131
687.7427	-0.0136
687.9253	-0.0204
688.1079	0.0148
688.2905	0.0053
688.4731	0.02
688.6556	0.0072
688.8382	-0.0208
689.0207	0.0052
689.2032	0.0108
689.3857	-0.0028
689.5681	0.0062
689.7506	0.0229
689.933	-0.0105
690.1154	-0.0094
690.2978	0.0029
690.4802	0.0083
690.6626	-0.0013
690.8449	0.0132
691.0272	0.0005
691.2095	-0.0158
691.3918	0.0084
691.5741	-0.0075
691.7563	0.0145
691.9386	0.0256
692.1208	0.0035
692.303	-0.0181
692.4852	-0.0116
692.6673	0.0072
692.8495	0.0016
693.0316	0.0015
693.2137	0.0232
693.3958	0.0131
693.5778	-0.0022
693.7599	0.0008
693.9419	-0.0129
694.1239	0.0133
694.3059	0.0359
694.4879	-0.0002
694.6699	-0.0083
694.8518	0.0318
695.0337	0.0184
695.2157	0.0157
695.3975	0.0164
695.5794	-0.018
695.7613	0.0255
695.9431	-0.0221
696.1249	0.0226
696.3067	-0.0035
696.4885	0.0204
696.6703	0.0094
696.852	-0.0131
697.0337	0.0184
697.2154	-0.0011
697.3971	0.0001
697.5788	0.0307
697.7605	-0.0042
697.9421	0.0192
698.1237	0.0152
698.3053	-0.0049
698.4869	0.0117
698.6685	0.0007
698.85	0.0144
699.0315	-0.0155
699.213	0.0221
699.3945	-0.0204
699.576	0.0333
699.7575	0.0218
699.9389	0.0152
700.1203	0.0223
700.3017	-0.0006
700.4831	0.0337
700.6645	0.0257
700.8458	0.001
701.0271	0.0478
701.2084	0.0057
701.3897	-0.0043
701.571	0.0078
701.7523	-0.006
701.9335	0.025
702.1147	0.0031
702.2959	0.0078
702.4771	0.0022
702.6583	-0.0049
702.8394	0.0008
703.0205	0.0211
703.2016	0.0038
703.3827	-0.0139
703.5638	0.016
703.7449	0.0055
703.9259	0.0186
704.1069	-0.0198
704.2879	0.0057
704.4689	-0.0179
704.6499	0.0255
704.8308	-0.0044
705.0117	0.0074
705.1927	0.0173
705.3735	-0.0017
705.5544	0.0148
705.7353	-0.0057
705.9161	-0.0203
706.0969	0.0154
706.2777	0.016
706.4585	0.0008
706.6393	0.0219
706.82	0.0092
707.0007	-0.0151
707.1815	-0.0017
707.3621	0.0229
707.5428	0.0155
707.7235	-0.0033
707.9041	0.0269
708.0847	0.0056
708.2653	0.0366
708.4459	0.0031
708.6265	-0.0163
708.807	-0.0047
708.9875	0.0173
709.168	-0.0131
709.3485	0.0226
709.529	0.0219
709.7095	-0.0141
709.8899	-0.0005
710.0703	0.0198
710.2507	0.024
710.4311	-0.0338
710.6115	0.0329
710.7918	0.0128
710.9721	0.0164
711.1524	-0.0021
711.3327	-0.0145
711.513	0.0299
711.6932	0.0002
711.8735	0.0139
712.0537	-0.0103
712.2339	0.0026
712.4141	0.0421
712.5942	0.0116
712.7744	0.0088
712.9545	0.0059
713.1346	0.0207
713.3147	-0.0021
713.4947	-0.0287
713.6748	-0.0078
713.8548	0.0141
714.0348	0.0198
714.2148	-0.0155
714.3948	0.0114
714.5748	0.0101
714.7547	-0.0039
714.9346	0.0143
715.1145	0.0062
715.2944	-0.0166
715.4743	0.014
715.6541	0.0019
715.834	0.0298
716.0138	0.0442
716.1936	0.0066
716.3733	0.014
716.5531	0.0229
716.7328	-0.017
716.9126	0.0088
717.0923	-0.0355
717.2719	0.0094
717.4516	0.0065
717.6312	-0.0085
717.8109	0.0259
717.9905	0.0357
718.1701	0.005
718.3496	0.0069
718.5292	-0.0132
718.7087	0.0054
718.8882	0.0216
719.0677	0.0158
719.2472	0.002
719.4267	-0.0017
719.6061	-0.0391
719.7856	0.0373
719.965	-0.0057
720.1443	-0.0022
720.3237	-0.0057
720.5031	0.0193
720.6824	0.0017
720.8617	0.0039
721.041	0.0196
721.2203	0.0234
721.3995	0.0059
721.5788	0.0053
721.758	-0.0015
721.9372	-0.0125
722.1164	0.0015
722.2956	-0.0064
722.4747	0.0348
722.6538	0.0006
722.8329	0.0254
723.012	0.0193
723.1911	0.0006
723.3702	0.0193
723.5492	0.0002
723.7282	-0.0113
723.9072	0.0171
724.0862	0.0038
724.2652	0.0199
724.4441	0.0039
724.623	-0.0058
724.8019	0.0027
724.9808	0.0067
725.1597	-0.0005
725.3385	0.0184
725.5174	0.0025
725.6962	0.0022
725.875	0.0112
726.0538	-0.0128
726.2325	0.0078
726.4112	-0.0109
726.59	-0.0172
726.7687	-0.0184
726.9474	0.026
727.126	0.0259
727.3047	0.0057
727.4833	0.007
727.6619	-0.016
727.8405	0.0022
728.0191	0.0221
728.1976	0.008
728.3762	0.0038
728.5547	0.0112
728.7332	0.0308
728.9116	-0.0073
729.0901	0.0039
729.2686	0.0129
729.447	-0.0185
729.6254	0.0214
729.8038	-0.0036
729.9821	-0.018
730.1605	0.0094
730.3388	-0.0028
730.5171	0.0106
730.6954	-0.0233
730.8737	0.0122
731.0519	-0.0173
731.2302	0.0175
731.4084	-0.0103
731.5866	-0.0085
731.7648	0.0019
731.9429	-0.0016
732.1211	0.0007
732.2992	0.01
732.4773	0.0205
732.6554	0.0018
732.8335	0.007
733.0115	0.0409
733.1896	-0.0031
733.3676	0.0067
733.5456	0.013
733.7235	-0.0065
733.9015	-0.0066
734.0794	-0.0042
734.2574	-0.0076
734.4353	0.0013
734.6131	-0.0093
734.791	-0.0226
734.9689	-0.005
735.1467	0.0082
735.3245	0.0148
735.5023	-0.0015
735.68	0.0007
735.8578	0.0227
736.0355	0.0203
736.2132	-0.0046
736.3909	0.0136
736.5686	0.0028
736.7463	-0.0082
736.9239	0.0125
737.1015	0.0121
737.2791	0.0196
737.4567	0.0102
737.6343	0.0059
737.8118	0.0259
737.9894	0.0177
738.1669	0.0065
738.3444	0.0372
738.5218	-0.0077
738.6993	0.015
738.8767	0.0009
739.0541	-0.0036
739.2315	0.0046
739.4089	0.012
739.5863	0.0056
739.7636	-0.0207
739.9409	0.0038
740.1182	0.0134
740.2955	0.0184
740.4728	-0.0193
740.65	0.0125
740.8272	0.0371
741.0044	-0.0224
741.1816	0.0326
741.3588	-0.0083
741.5359	-0.0048
741.7131	0.0168
741.8902	0.0175
742.0673	-0.0282
742.2444	0.0322
742.4214	0.0063
742.5985	-0.0166
742.7755	-0.0003
742.9525	-0.0304
743.1295	-0.0228
743.3064	0.0017
743.4834	0.0133
743.6603	0.0267
743.8372	-0.0385
744.0141	0.0285
744.191	0.0282
744.3678	-0.0236
744.5446	0.0011
744.7215	0.0146
744.8982	0.0287
745.075	0.0561
745.2518	-0.0007
745.4285	-0.0032
745.6052	-0.0352
745.7819	0.0149
745.9586	0.0135
746.1353	-0.0109
746.3119	0.0121
746.4885	0.0436
746.6651	-0.0092
746.8417	0.0002
747.0183	0.0314
747.1948	0.0288
747.3714	0.0405
747.5479	0.0022
747.7244	0.0193
747.9008	-0.0037
748.0773	0.0443
748.2537	0.0194
748.4301	0.0075
748.6065	-0.014
748.7829	-0.032
748.9593	0.0002
749.1356	-0.0053
749.3119	-0.0056
749.4882	0.024
749.6645	0.0004
749.8408	0.0138
750.017	-0.0026
750.1933	-0.0381
750.3695	-0.0002
750.5457	-0.0072
750.7218	0.0082
750.898	-0.0144
751.0741	0.0144
751.2502	-0.0084
751.4263	-0.008
751.6024	0.019
751.7784	0.0019
751.9545	-0.0032
752.1305	-0.0062
752.3065	0.0041
752.4825	0.0078
752.6584	0.0096
752.8344	0.0013
753.0103	-0.0271
753.1862	0.0275
753.3621	0.0091
753.5379	-0.023
753.7138	0.0122
753.8896	0.013
754.0654	-0.0075
754.2412	0.0015
754.417	0.0211
754.5927	0.0179
754.7685	0.0166
754.9442	0.005
755.1199	0.0206
755.2956	-0.0058
755.4712	-0.0136
755.6469	-0.003
755.8225	0.0117
755.9981	0.02
756.1736	0.0058
756.3492	-0.0166
756.5248	0.0017
756.7003	-0.0014
756.8758	-0.0061
757.0513	0.0029
757.2267	-0.0061
757.4022	-0.006
757.5776	-0.0143
757.753	0.0155
757.9284	0.0079
758.1038	-0.0017
758.2791	0.0015
758.4545	-0.0113
758.6298	-0.0039
758.8051	0.011
758.9803	0.0058
759.1556	0.0152
759.3308	-0.0055
759.506	0.0063
759.6812	-0.0077
759.8564	0.0075
760.0316	0.0017
760.2067	0.0207
760.3819	-0.0069
760.557	0.006
760.732	-0.0001
760.9071	0.0074
761.0821	-0.0243
761.2572	0.0018
761.4322	0.0229
761.6072	-0.0096
761.7821	-0.0336
761.9571	0.0214
762.132	0.0117
762.3069	0.0081
762.4818	0.0164
762.6567	-0.002
762.8316	0.005
763.0064	0.0048
763.1812	0.0181
763.356	-0.0034
763.5308	0.0371
763.7055	-0.0211
763.8803	-0.0244
764.055	0.0104
764.2297	-0.0037
764.4044	-0.0039
764.579	0.0108
764.7537	0.0173
764.9283	0.026
765.1029	0.0014
765.2775	0.0171
765.4521	-0.0082
765.6266	0.0042
765.8011	0.0157
765.9756	0.0258
766.1501	0.0057
766.3246	0.0029
766.4991	0.0129
766.6735	0.0464
766.8479	0.0034
767.0223	-0.003
767.1967	0.0223
767.371	0.0138
767.5454	0.0087
767.7197	0.0249
767.894	-0.0094
768.0683	0.033
768.2425	-0.0075
768.4168	0.0178
768.591	-0.0075
768.7652	0.0104
768.9394	-0.0555
769.1135	0.0152
769.2877	0.0073
769.4618	0.0287
769.6359	0.0142
769.81	0.0131
769.984	-0.0051
770.1581	0.0228
770.3321	0.0102
770.5061	-0.0052
770.6801	0.0255
770.8541	0.012
771.028	0.0387
771.202	0.0269
771.3759	-0.0006
771.5498	0.0095
771.7236	0.0147
771.8975	0.0265
772.0713	0.0048
772.2451	-0.0345
772.4189	0.0221
772.5927	-0.0115
772.7665	0.016
772.9402	0.0119
773.1139	-0.0074
773.2876	-0.0154
773.4613	0.0228
773.635	0.0399
773.8086	0.0257
773.9822	0.0174
774.1558	0.0325
774.3294	0.0176
774.503	0.0447
774.6765	-0.0031
774.8501	0.012
775.0236	0.0431
775.1971	0.0018
775.3705	-0.0104
775.544	0.012
775.7174	0.017
775.8908	0.0092
776.0642	0.0381
776.2376	0.0261
776.4109	0.0099
776.5843	-0.0005
776.7576	-0.0259
776.9309	0.0602
777.1041	-0.0014
777.2774	-0.0215
777.4506	0.0143
777.6238	-0.0075
777.797	0.0183
777.9702	-0.0075
778.1434	0.0264
778.3165	-0.029
778.4896	-0.0134
778.6627	0.0141
778.8358	-0.0173
779.0089	-0.0349
779.1819	0.0413
779.3549	0.0168
779.5279	-0.01
779.7009	0.0704
779.8739	0.0621
780.0468	0.0176
780.2197	0.0173
780.3926	-0.0069
780.5655	-0.0043
780.7384	0.0075
780.9112	0.0308
781.0841	0.0007
781.2569	0.0354
781.4297	-0.0093
781.6024	0.0057
781.7752	0.0224
781.9479	0.0463
782.1206	0.0023
782.2933	0.0265
782.466	0.0317
782.6386	-0.0088
782.8113	-0.0009
782.9839	0.0225
783.1565	0.0328
783.329	-0.014
783.5016	0.002
783.6741	-0.0142
783.8466	0.0255
784.0191	0.0107
784.1916	-0.0338
784.3641	-0.0604
784.5365	0.0072
784.7089	0.0037
784.8813	0.0575
785.0537	0.0457
785.2261	0.0185
785.3984	0.015
785.5707	-0.0034
785.743	0.0399
785.9153	0.0108
786.0876	0.0103
786.2598	0.0056
786.432	0.017
786.6042	0.0317
786.7764	0.0133
786.9486	-0.0272
787.1207	0.0676
787.2928	0.0653
787.4649	-0.0131
787.637	0.0239
787.8091	-0.0021
787.9811	0.0328
788.1532	-0.0055
788.3252	0.0132
788.4972	-0.0079
788.6691	0.0151
788.8411	0.0174
789.013	0.0143
789.1849	0.0133
789.3568	0.0051
789.5287	0.0414
789.7005	-0.0043
789.8723	-0.0356
790.0442	0.0187
790.2159	0.0151
790.3877	0.0513
790.5595	-0.0287
790.7312	0.0157
790.9029	-0.0177
791.0746	0.0383
791.2463	-0.0416
791.4179	0.0068
791.5896	0.0165
791.7612	0.0536
791.9328	-0.0106
792.1044	-0.0217
792.2759	-0.0397
792.4474	-0.003
792.619	-0.0217
792.7905	-0.0097
792.9619	0.0544
793.1334	0.0376
793.3048	0.0453
793.4762	0.0381
793.6476	-0.0121
793.819	0.0328
793.9904	-0.0135
794.1617	0.0003
794.333	0.0247
794.5043	0.0367
794.6756	-0.0032
794.8469	-0.0088
795.0181	-0.0029
795.1893	0.0015
795.3605	0.0215
795.5317	0.0149
795.7029	-0.0218
795.874	0.0098
796.0452	0.0364
796.2163	0.0438
796.3873	0.0405
796.5584	-0.0662
796.7294	0.0158
796.9005	0.0095
797.0715	-0.0209
797.2425	0.051
797.4134	0.0463
797.5844	0.0504
797.7553	-0.0541
797.9262	0.0304
798.0971	-0.0016
798.2679	0.0255
798.4388	0.0903
798.6096	-0.0361
798.7804	0.0606
798.9512	0.0269
799.122	-0.0084
799.2927	0.0355
799.4635	-0.0211
799.6342	-0.054
799.8049	0.056
799.9755	-0.0261
800.1462	-0.0129
800.3168	0.0347
800.4874	-0.0796
800.658	-0.01
800.8286	-0.064
800.9991	0.0506
801.1696	0.0339
801.3402	0.0565
801.5106	-0.0507
801.6811	0.0264
801.8516	0.017
802.022	0.0321
802.1924	-0.0155
802.3628	0.0875
802.5332	0.121
802.7035	0.0766
802.8739	0.0107
803.0442	-0.0229
803.2145	0.0295
803.3847	0.0412
803.555	0.0232
803.7252	0.0417
803.8954	-0.0746
804.0656	0.0271
804.2358	0.0026
804.4059	0.01
804.5761	0.0705
804.7462	0.072
804.9163	0.0649
805.0864	-0.0772
805.2564	-0.0178
805.4264	-0.0402
805.5965	0.0981
805.7665	-0.0922
805.9364	-0.0055
806.1064	-0.0267
806.2763	0.0217
806.4462	0.0331
806.6161	0.0398
806.786	-0.022
806.9559	-0.014
807.1257	0.0212
807.2955	-0.0018
807.4653	-0.0193
807.6351	0.0678
807.8048	-0.0022
807.9746	-0.0105
808.1443	-0.0231
808.314	0.0184
808.4837	0.0018
808.6533	-0.0267
808.8229	0.002
808.9926	0.02
809.1622	0.0372
809.3317	-0.0372
809.5013	-0.0207
809.6708	0.0426
809.8403	0.0138
810.0098	0.1839
810.1793	-0.0074
810.3488	-0.0586
810.5182	0.0872
810.6876	-0.0088
810.857	-0.0269
811.0264	-0.0578
811.1958	0.1553
811.3651	-0.1303
811.5344	0.0767
811.7037	0.0152
811.873	0.0338
812.0422	-0.1316
812.2115	0.0152
812.3807	-0.0869
812.5499	0.0998
812.7191	-0.0024
812.8882	-0.029
813.0574	0.0171
813.2265	0.0352
813.3956	-0.0155
813.5646	0.0171
813.7337	-0.0304
813.9027	-0.1173
814.0718	-0.0146
814.2407	0.0187
814.4097	0.0613
814.5787	0.1043
814.7476	-0.008
814.9165	0.0822
815.0854	0.0282
815.2543	0.0226
815.4232	0.1917
815.592	0.0217
815.7608	-0.0828
815.9296	-0.0153
816.0984	0.1274
816.2671	-0.0398
816.4359	0.1924
816.6046	0.0743
816.7733	-0.0443
816.942	-0.1491
817.1106	0.0495
817.2793	-0.0349
817.4479	-0.0438
817.6165	0.0238
817.785	0.0437
817.9536	-0.0963
818.1221	-0.0094
818.2906	-0.1888
818.4591	0.0814
818.6276	-0.041
818.7961	-0.0412
818.9645	0.0411
819.1329	-0.0188
819.3013	-0.0354
819.4697	0.0023
819.638	0.0396
819.8064	0.1006
819.9747	0.1674
820.143	-0.0879
820.3113	-0.0435
820.4795	0.0322
820.6477	0.0602
820.816	0.138
820.9842	0.0933
821.1523	-0.0735
821.3205	-0.0342
821.4886	-0.0657
821.6567	-0.0679
821.8248	0.1149
821.9929	-0.0783
822.1609	-0.0183
822.329	0.0617
822.497	0.0675
822.665	0.103
822.833	-0.1079
823.0009	-0.1099
823.1688	0.0707
823.3367	-0.0246
823.5046	0.22
823.6725	-0.0711
823.8404	0.1299
824.0082	-0.0516
824.176	-0.0224
824.3438	0.0699
824.5116	0.0111
824.6793	0.0471
824.847	-0.1324
825.0147	0.2272
825.1824	0.1556
825.3501	0.0334
825.5177	0.0574
825.6854	-0.0456
825.853	0.0495
826.0206	0.0806
826.1881	-0.0198
826.3557	-0.0392
826.5232	0.147
826.6907	0.0129
826.8582	-0.0273
827.0257	0.1395
827.1931	0.1715
827.3605	-0.1095
827.528	-0.2087
827.6953	-0.1887
827.8627	0.0133
828.03	0.341
828.1974	-0.0582
828.3647	-0.0069
828.532	0.0347
828.6992	0.0652
828.8665	-0.0749
829.0337	0.1482
829.2009	0.0562
829.3681	-0.0412
829.5352	-0.3744
829.7024	0.1646
829.8695	-0.0997
830.0366	0.1683
830.2037	0.1471
830.3707	-0.0139
830.5378	0.5305
830.7048	-0.1597
830.8718	0.2688
831.0388	-0.0083
831.2057	0.0675
831.3727	-0.301
831.5396	0.1
831.7065	0.0245
831.8734	0.1169
832.0402	0.3624
832.2071	-0.4569
832.3739	-0.0986
832.5407	-1.9258
832.7075	-0.4643
832.8742	-0
833.041	-0.0172
833.2077	0.0528
833.3744	0.1237
833.541	0.0727
833.7077	-0.1956
833.8743	0.1335
834.0409	0.026
834.2075	0.0063
834.3741	0.1158
834.5407	0.1655
834.7072	-0.0547
834.8737	0.0927
835.0402	0.2275
835.2067	-0.0592
835.3731	-0.1735
835.5395	0.0485
835.706	-0.2043
835.8723	0.0528
836.0387	0.0854
836.2051	-0
836.3714	0.0696
836.5377	-0.1881
836.704	0.122
836.8703	-0.2136
837.0365	-0.2396
837.2027	0.0366
837.3689	0.7515
837.5351	-0.1129
837.7013	-0.37
837.8674	-0.5597
838.0335	-0.1277
838.1997	1.0744
838.3657	0.7954
838.5318	-0.4338
838.6978	0.7723
838.8639	-0.2246
839.0299	0.1682
839.1958	0.0828
839.3618	-0
839.5277	0.0715
839.6937	0.0728
839.8596	-0.3219
840.0254	0.0298
840.1913	2.1688
840.3571	-0.1878
840.523	-0
840.6888	0.0414
840.8545	-0.5933
841.0203	0.2289
841.186	0.0588
841.3517	-0.1038
841.5174	0.3833
841.6831	0.6147
841.8488	-0.0668
842.0144	0.1285
842.18	0.5016
842.3456	-0.1349
842.5112	-0
842.6767	0.003
842.8422	0.2561
843.0077	0.2959
843.1732	-0.2448
843.3387	0.2084
843.5042	0.8956
843.6696	-0.3962
843.835	-0.3313
844.0004	-0.2582
844.1657	-0.4202
844.3311	0.0118
844.4964	-0.1858
844.6617	0.13
844.827	-0
844.9923	0.4873
845.1575	-0
845.3227	-0.1156
845.4879	-0.0591
845.6531	0.17
845.8183	-0.023
845.9834	-0
846.1485	0.5764
846.3136	-0.0893
846.4787	-0
846.6438	0.4651
846.8088	-0
846.9738	-0
847.1388	0.0919
847.3038	0.1251
847.4687	-0
847.6337	0.2346
847.7986	1.1497
847.9635	-0.0921
848.1284	-0
848.2932	0.2801
848.458	-0
848.6228	0.3824
848.7876	-0.0632
848.9524	-0.6391
849.1172	-1.4934
849.2819	-0.8183
849.4466	0.2847
849.6113	0.3282
849.7759	-0
849.9406	-0.1024
850.1052	-0
850.2698	-0
850.4344	-0
850.599	0.4143
850.7635	0.3032
850.928	0.0121
851.0925	0.2654
851.257	0.0633
851.4215	0.3046
851.5859	-0.0109
851.7503	-0
851.9147	-0
852.0791	-0.172
852.2434	0.2772
852.4078	-0
852.5721	1.0577
852.7364	-0.0454
852.9007	-0.0767
853.0649	-0
853.2291	0.2505
853.3934	-0
853.5575	0.1101
853.7217	0.6072
853.8859	-0
854.05	-0.5196
854.2141	1.1553
854.3782	-0.2371
854.5423	0.1972
854.7063	-0.0322
854.8703	-0.0044
855.0343	0.0036
855.1983	-0.0603
855.3623	-0.074
855.5262	-0
855.6901	0.7035
855.854	0.133
856.0179	-0.053
856.1818	0.8591
856.3456	-0
856.5094	-0.4841
856.6732	-0.0257
856.837	-0.9135
857.0008	-0
857.1645	-0.2018
857.3282	-0.3157
857.4919	0.3109
857.6556	-0.5622
857.8192	-0.2608
857.9828	-0.2408
858.1465	-0.0075
858.31	-0
858.4736	-0.6339
858.6372	-0
858.8007	0.8257
858.9642	0.2141
859.1277	0.6128
859.2911	-0.6472
859.4546	-0
859.618	-0
859.7814	0.6039
859.9448	-0
860.1081	0.3617
860.2715	-0.301
860.4348	-0.2812
860.5981	0.4103
860.7614	0.2738
860.9246	0.3749
861.0879	2.3646
861.2511	-0.8578
861.4143	-0
861.5774	-0.2023
861.7406	-0
861.9037	0.4705
862.0668	0.1606
862.2299	-0.09
862.393	-0
862.556	-0
862.7191	-0.2869
862.8821	0.0998
863.0451	0.5271
863.208	0.764
863.371	0.2204
863.5339	0.5666
863.6968	0.3258
863.8597	-0.5939
864.0225	-0.166
864.1854	0.347
864.3482	-0.595
864.511	-0.3124
864.6737	-0
864.8365	0.2016
864.9992	-0
865.1619	0.1075
865.3246	-1.6314
865.4873	0.2601
865.65	0.4166
865.8126	0.5508
865.9752	-0.1168
866.1378	0.1392
866.3004	-0.0775
866.4629	-1.8486
866.6254	-0.0213
866.7879	0.1326
866.9504	0.1831
867.1129	-0.3435
867.2753	0.2518
867.4377	-0
867.6001	-0
867.7625	-0.0852
867.9249	-0.064
868.0872	2.2343
868.2495	1.0969
868.4118	-0
868.5741	-0.3256
868.7363	-0
868.8986	-0
869.0608	-0.0949
869.223	-0.2127
869.3851	-0
869.5473	0.1833
869.7094	0.1406
869.8715	-0
870.0336	-0.1861
870.1957	-0
870.3577	0.3272
870.5197	-0.3335
870.6817	-0.4162
870.8437	-0.5024
871.0057	0.3517
871.1676	0.1012
871.3295	-0
871.4914	-0
871.6533	-0.4017
871.8151	0.609
871.977	0.0732
872.1388	0.244
872.3006	0.0519
872.4623	-0
872.6241	0.8075
872.7858	-0
872.9475	-0
873.1092	-0.0901
873.2709	0.4304
873.4325	-2.2476
873.5941	-0
873.7557	0.1253
873.9173	0.0702
874.0789	0.3846
874.2404	-0
874.4019	0.0437
874.5634	-0
874.7249	0.2118
874.8863	-0
875.0478	-0.38
875.2092	0.5278
875.3706	0.1483
875.5319	2.0233
875.6933	0.5734
875.8546	0.1567
876.0159	0.6332
876.1772	0.3617
876.3385	2.3294
876.4997	0.38
876.6609	0.5826
876.8221	-0
876.9833	0.5159
877.1445	0.1735
877.3056	-1.2329
877.4667	-0.7413
877.6278	1.4592
877.7889	0.8041
877.9499	1.446
878.111	0.1567
878.272	-0
878.433	0.068
878.5939	0.182
878.7549	0.9561
878.9158	-0
879.0767	0.6853
879.2376	-0
879.3984	0.4029
879.5593	0.3026
879.7201	-1.6681
879.8809	-0
880.0417	-0.2439
880.2024	0.0845
880.3632	0.1016
880.5239	0.0058
880.6846	0.0783
880.8452	-0.018
881.0059	-0.7687
881.1665	-0.1062
881.3271	0.8278
881.4877	0.2613
881.6483	-0
881.8088	-0
881.9693	-0.112
882.1298	-0.112
882.2903	-0.112
