Data from D4ACN5uM440nmA_Absorbance_13-50-24-517.txt Node
Date: Fri Feb 21 13:50:24 GMT 2025
User: LASERRRRR
Spectrometer: FLMT03099
Trigger mode: 0
Integration Time (sec): 1.500000E-2
Scans to average: 1
Electric dark correction enabled: true
Nonlinearity correction enabled: false
Boxcar width: 0
XAxis mode: Wavelengths
Number of Pixels in Spectrum: 3648
>>>>>Begin Spectral Data<<<<<
179.3399	-0.4803
179.5586	-0.4803
179.7771	-0.4803
179.9957	-0.3833
180.2143	-0
180.4329	-0.2869
180.6514	-0
180.8699	0.4036
181.0885	-0.2833
181.307	0.0755
181.5255	0.6659
181.744	0.4067
181.9625	-0
182.181	-0
182.3994	-0.5307
182.6179	-0
182.8363	0.1323
183.0547	-0.3317
183.2732	0.0441
183.4916	0.1445
183.71	0.2097
183.9284	0.0151
184.1467	0.0797
184.3651	0.2221
184.5835	0.1675
184.8018	0.2439
185.0201	-0.0928
185.2385	0.1954
185.4568	0.1917
185.6751	0.0936
185.8934	0.3037
186.1117	-0.085
186.3299	0.1423
186.5482	0.2364
186.7664	0.177
186.9847	-0.1289
187.2029	0.2123
187.4211	0.0061
187.6393	0.1229
187.8575	0.2221
188.0757	1.4848
188.2939	-0.0164
188.512	0.2859
188.7302	0.125
188.9483	0.2621
189.1665	0.2974
189.3846	0.2754
189.6027	0.3894
189.8208	0.2649
190.0389	0.1577
190.257	-0.0043
190.475	-0.0274
190.6931	0.1081
190.9111	0.0762
191.1292	0.1875
191.3472	0.2096
191.5652	0.1785
191.7832	0.2498
192.0012	0.0666
192.2192	0.141
192.4371	0.1301
192.6551	0.2214
192.873	0.189
193.091	0.1622
193.3089	0.1525
193.5268	0.187
193.7447	0.2711
193.9626	0.1536
194.1805	0.2176
194.3984	0.211
194.6162	0.2131
194.8341	0.3499
195.0519	0.3051
195.2697	0.245
195.4875	0.2837
195.7054	0.2974
195.9231	0.2632
196.1409	0.3317
196.3587	0.3272
196.5765	0.2736
196.7942	0.3008
197.012	0.3618
197.2297	0.3565
197.4474	0.3667
197.6651	0.3722
197.8828	0.3783
198.1005	0.4984
198.3182	0.326
198.5358	0.429
198.7535	0.3508
198.9711	0.4197
199.1888	0.3475
199.4064	0.3994
199.624	0.3562
199.8416	0.3755
200.0592	0.443
200.2767	0.3828
200.4943	0.4222
200.7119	0.3657
200.9294	0.3948
201.1469	0.3726
201.3645	0.4477
201.582	0.3624
201.7995	0.4197
202.017	0.3817
202.2344	0.4329
202.4519	0.4355
202.6694	0.3807
202.8868	0.4049
203.1042	0.4423
203.3217	0.3863
203.5391	0.3892
203.7565	0.3603
203.9739	0.3746
204.1913	0.3383
204.4086	0.3439
204.626	0.3671
204.8433	0.3563
205.0607	0.3769
205.278	0.3396
205.4953	0.3293
205.7126	0.3249
205.9299	0.3106
206.1472	0.2967
206.3644	0.3535
206.5817	0.3263
206.7989	0.3279
207.0162	0.3084
207.2334	0.3405
207.4506	0.3083
207.6678	0.2989
207.885	0.2743
208.1022	0.2976
208.3194	0.2732
208.5365	0.3073
208.7537	0.2769
208.9708	0.3054
209.1879	0.2735
209.405	0.2765
209.6222	0.2662
209.8392	0.2999
210.0563	0.3015
210.2734	0.2739
210.4905	0.2585
210.7075	0.2868
210.9245	0.2504
211.1416	0.2698
211.3586	0.2751
211.5756	0.253
211.7926	0.2569
212.0096	0.2681
212.2265	0.2647
212.4435	0.2562
212.6604	0.2475
212.8774	0.2555
213.0943	0.2582
213.3112	0.2597
213.5281	0.2671
213.745	0.2293
213.9619	0.234
214.1788	0.2577
214.3956	0.2502
214.6125	0.2628
214.8293	0.255
215.0461	0.2479
215.2629	0.2613
215.4798	0.251
215.6965	0.253
215.9133	0.2412
216.1301	0.234
216.3469	0.2541
216.5636	0.2498
216.7803	0.2395
216.9971	0.2662
217.2138	0.2514
217.4305	0.2448
217.6472	0.2528
217.8639	0.252
218.0805	0.2522
218.2972	0.241
218.5138	0.2617
218.7305	0.2572
218.9471	0.2566
219.1637	0.2671
219.3803	0.2656
219.5969	0.2498
219.8135	0.2647
220.0301	0.2643
220.2466	0.2678
220.4632	0.2383
220.6797	0.266
220.8962	0.2568
221.1127	0.2624
221.3292	0.2543
221.5457	0.2743
221.7622	0.2748
221.9787	0.2711
222.1951	0.2759
222.4116	0.281
222.628	0.281
222.8444	0.2822
223.0608	0.2809
223.2772	0.275
223.4936	0.2769
223.71	0.2813
223.9264	0.2844
224.1427	0.2828
224.3591	0.2909
224.5754	0.2868
224.7917	0.3035
225.008	0.2971
225.2243	0.2933
225.4406	0.294
225.6569	0.2984
225.8732	0.3149
226.0894	0.3181
226.3057	0.3147
226.5219	0.3194
226.7381	0.3245
226.9543	0.3135
227.1705	0.3246
227.3867	0.3241
227.6029	0.3153
227.8191	0.3354
228.0352	0.3427
228.2513	0.3477
228.4675	0.3399
228.6836	0.3418
228.8997	0.3365
229.1158	0.347
229.3319	0.3479
229.548	0.3537
229.764	0.3576
229.9801	0.3888
230.1961	0.3737
230.4121	0.3672
230.6282	0.3824
230.8442	0.3765
231.0602	0.3822
231.2761	0.3741
231.4921	0.38
231.7081	0.3902
231.924	0.3984
232.14	0.4036
232.3559	0.404
232.5718	0.4088
232.7877	0.4078
233.0036	0.4012
233.2195	0.406
233.4353	0.4126
233.6512	0.4089
233.867	0.4202
234.0829	0.4235
234.2987	0.4258
234.5145	0.4347
234.7303	0.4312
234.9461	0.4413
235.1619	0.4366
235.3776	0.4257
235.5934	0.4273
235.8091	0.4391
236.0249	0.4454
236.2406	0.4425
236.4563	0.4579
236.672	0.4544
236.8877	0.4491
237.1034	0.4469
237.319	0.4524
237.5347	0.4539
237.7503	0.4438
237.966	0.4674
238.1816	0.4479
238.3972	0.4628
238.6128	0.4661
238.8284	0.4596
239.0439	0.4669
239.2595	0.4675
239.475	0.4634
239.6906	0.451
239.9061	0.4478
240.1216	0.4705
240.3371	0.4548
240.5526	0.4658
240.7681	0.4652
240.9836	0.4593
241.199	0.4527
241.4145	0.4514
241.6299	0.4458
241.8453	0.4355
242.0607	0.4284
242.2761	0.4246
242.4915	0.4176
242.7069	0.4159
242.9223	0.4171
243.1376	0.4096
243.353	0.4001
243.5683	0.3905
243.7836	0.3839
243.9989	0.3742
244.2142	0.3739
244.4295	0.3678
244.6448	0.3694
244.86	0.3472
245.0753	0.3402
245.2905	0.337
245.5057	0.3275
245.721	0.3304
245.9362	0.3251
246.1514	0.3157
246.3665	0.3098
246.5817	0.2903
246.7969	0.2993
247.012	0.2933
247.2271	0.2901
247.4423	0.2839
247.6574	0.2855
247.8725	0.2717
248.0876	0.2686
248.3026	0.2661
248.5177	0.2573
248.7328	0.2517
248.9478	0.2487
249.1628	0.2442
249.3779	0.2347
249.5929	0.236
249.8079	0.2374
250.0228	0.2355
250.2378	0.2253
250.4528	0.2329
250.6677	0.2184
250.8827	0.2068
251.0976	0.2119
251.3125	0.2181
251.5274	0.2081
251.7423	0.2103
251.9572	0.2071
252.172	0.2076
252.3869	0.2026
252.6017	0.2077
252.8166	0.1999
253.0314	0.1982
253.2462	0.197
253.461	0.1951
253.6758	0.1909
253.8906	0.1908
254.1053	0.1918
254.3201	0.1949
254.5348	0.186
254.7496	0.183
254.9643	0.1913
255.179	0.1812
255.3937	0.1852
255.6083	0.1872
255.823	0.188
256.0377	0.1806
256.2523	0.1813
256.467	0.1873
256.6816	0.1862
256.8962	0.1799
257.1108	0.1846
257.3254	0.1863
257.54	0.1781
257.7545	0.1797
257.9691	0.181
258.1836	0.1744
258.3981	0.1775
258.6127	0.1717
258.8272	0.1874
259.0417	0.1694
259.2561	0.1784
259.4706	0.1731
259.6851	0.1743
259.8995	0.1743
260.114	0.1744
260.3284	0.1743
260.5428	0.1729
260.7572	0.1719
260.9716	0.1774
261.186	0.1792
261.4003	0.1798
261.6147	0.1715
261.829	0.1742
262.0433	0.1785
262.2577	0.1792
262.472	0.1759
262.6863	0.1833
262.9005	0.1738
263.1148	0.1768
263.3291	0.1753
263.5433	0.1785
263.7576	0.173
263.9718	0.1745
264.186	0.1719
264.4002	0.1732
264.6144	0.1837
264.8286	0.1769
265.0427	0.174
265.2569	0.186
265.471	0.1787
265.6851	0.1759
265.8993	0.1772
266.1134	0.1802
266.3275	0.1758
266.5415	0.1825
266.7556	0.1823
266.9697	0.1787
267.1837	0.1746
267.3978	0.1808
267.6118	0.1735
267.8258	0.1769
268.0398	0.1792
268.2538	0.1774
268.4677	0.172
268.6817	0.1774
268.8957	0.1683
269.1096	0.1676
269.3235	0.1676
269.5374	0.171
269.7514	0.1761
269.9652	0.1695
270.1791	0.1699
270.393	0.1744
270.6068	0.1719
270.8207	0.1724
271.0345	0.166
271.2483	0.1629
271.4622	0.1721
271.676	0.1677
271.8897	0.169
272.1035	0.1762
272.3173	0.169
272.531	0.1644
272.7448	0.1703
272.9585	0.1633
273.1722	0.1636
273.3859	0.1689
273.5996	0.1703
273.8133	0.1702
274.0269	0.1653
274.2406	0.169
274.4542	0.1638
274.6679	0.1663
274.8815	0.1709
275.0951	0.1749
275.3087	0.1738
275.5223	0.1673
275.7358	0.1679
275.9494	0.1662
276.1629	0.169
276.3765	0.1688
276.59	0.1675
276.8035	0.1647
277.017	0.1773
277.2305	0.1757
277.444	0.1669
277.6574	0.1723
277.8709	0.1782
278.0843	0.1733
278.2978	0.1726
278.5112	0.1738
278.7246	0.1771
278.938	0.1702
279.1513	0.1739
279.3647	0.1751
279.5781	0.1706
279.7914	0.1715
280.0047	0.1737
280.2181	0.1771
280.4314	0.1757
280.6447	0.1818
280.8579	0.1721
281.0712	0.1727
281.2845	0.1768
281.4977	0.1793
281.711	0.1775
281.9242	0.1778
282.1374	0.1756
282.3506	0.1802
282.5638	0.173
282.7769	0.1764
282.9901	0.1794
283.2033	0.1818
283.4164	0.1754
283.6295	0.1725
283.8426	0.1813
284.0557	0.181
284.2688	0.1813
284.4819	0.1813
284.695	0.1861
284.908	0.1823
285.1211	0.1826
285.3341	0.1746
285.5471	0.1865
285.7601	0.1894
285.9731	0.1878
286.1861	0.1865
286.3991	0.1893
286.612	0.1866
286.825	0.1871
287.0379	0.184
287.2508	0.1855
287.4637	0.1892
287.6766	0.1871
287.8895	0.1831
288.1024	0.1914
288.3152	0.1927
288.5281	0.1871
288.7409	0.1969
288.9538	0.1905
289.1666	0.1933
289.3794	0.1911
289.5922	0.1877
289.8049	0.1898
290.0177	0.1942
290.2304	0.1904
290.4432	0.1989
290.6559	0.1943
290.8686	0.1943
291.0813	0.2
291.294	0.189
291.5067	0.1922
291.7194	0.1961
291.932	0.1908
292.1447	0.1912
292.3573	0.1977
292.5699	0.1941
292.7825	0.1917
292.9951	0.194
293.2077	0.1905
293.4203	0.1941
293.6328	0.1904
293.8454	0.197
294.0579	0.1887
294.2704	0.1983
294.4829	0.1912
294.6954	0.1964
294.9079	0.191
295.1204	0.1893
295.3328	0.1977
295.5453	0.1959
295.7577	0.1943
295.9701	0.1955
296.1825	0.1977
296.3949	0.1921
296.6073	0.1937
296.8197	0.1912
297.0321	0.199
297.2444	0.1922
297.4567	0.195
297.6691	0.1928
297.8814	0.1964
298.0937	0.193
298.306	0.1881
298.5182	0.1992
298.7305	0.1925
298.9428	0.1937
299.155	0.1861
299.3672	0.1905
299.5794	0.1943
299.7916	0.197
300.0038	0.2016
300.216	0.1915
300.4282	0.1866
300.6403	0.1949
300.8525	0.1901
301.0646	0.1959
301.2767	0.1959
301.4888	0.1966
301.7009	0.1951
301.913	0.1953
302.125	0.1939
302.3371	0.1959
302.5491	0.1943
302.7612	0.1967
302.9732	0.192
303.1852	0.1943
303.3972	0.195
303.6092	0.1915
303.8211	0.1919
304.0331	0.1921
304.245	0.1903
304.457	0.1935
304.6689	0.1895
304.8808	0.1887
305.0927	0.1886
305.3046	0.1849
305.5164	0.1852
305.7283	0.1873
305.9401	0.1811
306.152	0.1764
306.3638	0.1807
306.5756	0.1794
306.7874	0.1804
306.9992	0.1803
307.2109	0.1715
307.4227	0.169
307.6344	0.1789
307.8462	0.166
308.0579	0.1786
308.2696	0.1623
308.4813	0.1676
308.693	0.1657
308.9046	0.1619
309.1163	0.1558
309.328	0.1586
309.5396	0.1527
309.7512	0.1563
309.9628	0.1537
310.1744	0.1531
310.386	0.15
310.5976	0.147
310.8091	0.1498
311.0207	0.1445
311.2322	0.1461
311.4437	0.1398
311.6552	0.1439
311.8667	0.1464
312.0782	0.1375
312.2897	0.1421
312.5012	0.1379
312.7126	0.1337
312.924	0.1346
313.1355	0.1372
313.3469	0.1344
313.5583	0.132
313.7696	0.1299
313.981	0.1266
314.1924	0.1252
314.4037	0.1315
314.6151	0.1238
314.8264	0.1293
315.0377	0.1307
315.249	0.1296
315.4603	0.129
315.6716	0.1269
315.8828	0.1247
316.0941	0.1241
316.3053	0.1216
316.5165	0.1249
316.7277	0.1217
316.9389	0.127
317.1501	0.1272
317.3613	0.1217
317.5724	0.1206
317.7836	0.1232
317.9947	0.1229
318.2058	0.1197
318.417	0.1196
318.6281	0.12
318.8391	0.1226
319.0502	0.1226
319.2613	0.1192
319.4723	0.1247
319.6834	0.1224
319.8944	0.12
320.1054	0.1194
320.3164	0.1133
320.5274	0.1174
320.7383	0.1211
320.9493	0.1177
321.1602	0.1234
321.3712	0.1255
321.5821	0.1139
321.793	0.1253
322.0039	0.1199
322.2148	0.1234
322.4257	0.1149
322.6365	0.1163
322.8474	0.122
323.0582	0.1195
323.269	0.1253
323.4798	0.1224
323.6906	0.1181
323.9014	0.1187
324.1122	0.1198
324.3229	0.1242
324.5337	0.1236
324.7444	0.1243
324.9551	0.1227
325.1658	0.1187
325.3765	0.1275
325.5872	0.1255
325.7979	0.1176
326.0085	0.1185
326.2192	0.1235
326.4298	0.1287
326.6404	0.1247
326.851	0.1233
327.0616	0.125
327.2722	0.1223
327.4828	0.1233
327.6933	0.1312
327.9039	0.1299
328.1144	0.1257
328.3249	0.1253
328.5354	0.127
328.7459	0.1265
328.9564	0.13
329.1669	0.1283
329.3773	0.1257
329.5878	0.1261
329.7982	0.1313
330.0086	0.1302
330.219	0.1347
330.4294	0.1304
330.6398	0.1279
330.8502	0.1319
331.0605	0.128
331.2708	0.1305
331.4812	0.1235
331.6915	0.1317
331.9018	0.124
332.1121	0.1387
332.3224	0.1302
332.5326	0.125
332.7429	0.1281
332.9531	0.1345
333.1633	0.1213
333.3735	0.1255
333.5837	0.1263
333.7939	0.1356
334.0041	0.136
334.2143	0.1296
334.4244	0.1364
334.6346	0.1264
334.8447	0.133
335.0548	0.1325
335.2649	0.1322
335.475	0.1359
335.685	0.128
335.8951	0.1338
336.1051	0.1358
336.3152	0.1412
336.5252	0.1343
336.7352	0.132
336.9452	0.1347
337.1552	0.1305
337.3652	0.1303
337.5751	0.1363
337.7851	0.1326
337.995	0.1357
338.2049	0.134
338.4148	0.1363
338.6247	0.138
338.8346	0.1279
339.0445	0.136
339.2543	0.1379
339.4642	0.1326
339.674	0.1361
339.8838	0.1397
340.0936	0.1355
340.3034	0.1359
340.5132	0.1299
340.7229	0.1415
340.9327	0.1423
341.1424	0.1406
341.3522	0.1415
341.5619	0.1389
341.7716	0.1449
341.9813	0.1471
342.1909	0.1492
342.4006	0.1427
342.6102	0.1385
342.8199	0.1459
343.0295	0.1419
343.2391	0.1457
343.4487	0.1511
343.6583	0.1514
343.8679	0.1436
344.0774	0.1491
344.287	0.1504
344.4965	0.1504
344.706	0.1536
344.9155	0.147
345.125	0.1478
345.3345	0.1589
345.544	0.1524
345.7534	0.1553
345.9629	0.1565
346.1723	0.151
346.3817	0.156
346.5911	0.1599
346.8005	0.1599
347.0099	0.1548
347.2193	0.1572
347.4286	0.1702
347.638	0.1608
347.8473	0.1703
348.0566	0.1635
348.2659	0.1601
348.4752	0.1681
348.6845	0.1635
348.8937	0.1646
349.103	0.1659
349.3122	0.1611
349.5214	0.1656
349.7306	0.1707
349.9398	0.1672
350.149	0.1593
350.3582	0.1662
350.5674	0.1661
350.7765	0.1717
350.9856	0.1629
351.1948	0.1726
351.4039	0.1774
351.613	0.1682
351.822	0.1783
352.0311	0.1771
352.2402	0.1707
352.4492	0.1684
352.6582	0.1769
352.8672	0.1767
353.0762	0.1802
353.2852	0.1755
353.4942	0.1804
353.7032	0.1798
353.9121	0.1798
354.1211	0.1834
354.33	0.1888
354.5389	0.1779
354.7478	0.1809
354.9567	0.1809
355.1655	0.1807
355.3744	0.1818
355.5833	0.1883
355.7921	0.1856
356.0009	0.1881
356.2097	0.1853
356.4185	0.1917
356.6273	0.1866
356.8361	0.1941
357.0448	0.1878
357.2536	0.1865
357.4623	0.1854
357.671	0.1986
357.8797	0.1969
358.0884	0.1905
358.2971	0.1935
358.5057	0.2014
358.7144	0.1931
358.923	0.1924
359.1316	0.2021
359.3402	0.2012
359.5488	0.1946
359.7574	0.205
359.966	0.2026
360.1746	0.2005
360.3831	0.2029
360.5916	0.2053
360.8002	0.2117
361.0087	0.2098
361.2172	0.2117
361.4256	0.2089
361.6341	0.2134
361.8426	0.2127
362.051	0.2151
362.2594	0.2101
362.4678	0.2053
362.6762	0.2181
362.8846	0.2151
363.093	0.2179
363.3014	0.2231
363.5097	0.2259
363.718	0.232
363.9264	0.2279
364.1347	0.2319
364.343	0.2197
364.5513	0.2254
364.7595	0.2342
364.9678	0.2237
365.176	0.2345
365.3842	0.2307
365.5925	0.2322
365.8007	0.2331
366.0089	0.2411
366.217	0.2402
366.4252	0.2348
366.6333	0.2436
366.8415	0.241
367.0496	0.2388
367.2577	0.2465
367.4658	0.2378
367.6739	0.2291
367.882	0.246
368.09	0.2408
368.2981	0.2496
368.5061	0.2441
368.7141	0.2392
368.9221	0.2623
369.1301	0.2429
369.3381	0.2571
369.5461	0.2489
369.754	0.2521
369.962	0.252
370.1699	0.2568
370.3778	0.2612
370.5857	0.2599
370.7936	0.2606
371.0015	0.262
371.2093	0.2581
371.4172	0.2551
371.625	0.2674
371.8328	0.253
372.0406	0.2678
372.2484	0.267
372.4562	0.2672
372.664	0.2696
372.8717	0.2633
373.0795	0.2594
373.2872	0.269
373.4949	0.2733
373.7026	0.2674
373.9103	0.267
374.118	0.2775
374.3256	0.2814
374.5333	0.2735
374.7409	0.273
374.9485	0.2797
375.1561	0.2712
375.3637	0.275
375.5713	0.2776
375.7789	0.2823
375.9864	0.2863
376.194	0.2834
376.4015	0.2856
376.609	0.2842
376.8165	0.2816
377.024	0.2874
377.2315	0.2946
377.4389	0.2796
377.6464	0.2894
377.8538	0.2847
378.0612	0.2891
378.2686	0.2858
378.476	0.2972
378.6834	0.2848
378.8908	0.2946
379.0981	0.2878
379.3055	0.2995
379.5128	0.2915
379.7201	0.2979
379.9274	0.2913
380.1347	0.2878
380.342	0.3068
380.5492	0.2991
380.7565	0.2999
380.9637	0.3014
381.1709	0.292
381.3781	0.3086
381.5853	0.3041
381.7925	0.3055
381.9997	0.3106
382.2068	0.3026
382.4139	0.3001
382.6211	0.3141
382.8282	0.3137
383.0353	0.3075
383.2424	0.3048
383.4494	0.3041
383.6565	0.3074
383.8635	0.3048
384.0706	0.3138
384.2776	0.3049
384.4846	0.3203
384.6916	0.3106
384.8986	0.3169
385.1055	0.3203
385.3125	0.3093
385.5194	0.3118
385.7263	0.3056
385.9333	0.3147
386.1402	0.3164
386.347	0.3124
386.5539	0.309
386.7608	0.3103
386.9676	0.3167
387.1744	0.3069
387.3813	0.3151
387.5881	0.3036
387.7948	0.3193
388.0016	0.3144
388.2084	0.311
388.4151	0.309
388.6219	0.3121
388.8286	0.3089
389.0353	0.3044
389.242	0.316
389.4487	0.3012
389.6553	0.2983
389.862	0.2943
390.0686	0.3132
390.2753	0.3028
390.4819	0.3072
390.6885	0.3014
390.8951	0.3056
391.1016	0.3089
391.3082	0.3122
391.5147	0.2958
391.7213	0.297
391.9278	0.2925
392.1343	0.2969
392.3408	0.2957
392.5473	0.2926
392.7537	0.2971
392.9602	0.2861
393.1666	0.2957
393.373	0.2875
393.5794	0.288
393.7858	0.2898
393.9922	0.2897
394.1986	0.2877
394.4049	0.2889
394.6113	0.2917
394.8176	0.2862
395.0239	0.2768
395.2302	0.2798
395.4365	0.2872
395.6428	0.2725
395.8491	0.2814
396.0553	0.2644
396.2615	0.274
396.4678	0.2789
396.674	0.2634
396.8802	0.2729
397.0863	0.2653
397.2925	0.2641
397.4987	0.2682
397.7048	0.2749
397.9109	0.2624
398.117	0.2625
398.3231	0.2639
398.5292	0.2602
398.7353	0.2626
398.9413	0.2786
399.1474	0.2651
399.3534	0.2671
399.5594	0.2678
399.7654	0.2621
399.9714	0.2632
400.1774	0.2642
400.3833	0.2713
400.5893	0.2666
400.7952	0.2666
401.0011	0.2611
401.207	0.2647
401.4129	0.265
401.6188	0.2704
401.8247	0.2766
402.0305	0.2673
402.2364	0.2662
402.4422	0.2622
402.648	0.2689
402.8538	0.2662
403.0596	0.257
403.2654	0.2652
403.4711	0.2588
403.6768	0.2599
403.8826	0.2606
404.0883	0.2641
404.294	0.2599
404.4997	0.2641
404.7054	0.2728
404.911	0.2684
405.1167	0.2737
405.3223	0.2555
405.5279	0.2597
405.7335	0.2579
405.9391	0.2544
406.1447	0.2675
406.3502	0.2579
406.5558	0.2618
406.7613	0.2601
406.9668	0.2616
407.1724	0.2546
407.3778	0.2572
407.5833	0.2568
407.7888	0.2594
407.9942	0.2672
408.1997	0.2698
408.4051	0.256
408.6105	0.2646
408.8159	0.2588
409.0213	0.2678
409.2267	0.2768
409.432	0.2627
409.6374	0.2688
409.8427	0.2719
410.048	0.2684
410.2533	0.2628
410.4586	0.2462
410.6639	0.2677
410.8691	0.2589
411.0744	0.2727
411.2796	0.2659
411.4848	0.264
411.69	0.2569
411.8952	0.2632
412.1004	0.2584
412.3056	0.261
412.5107	0.2562
412.7158	0.2785
412.921	0.2757
413.1261	0.262
413.3312	0.2607
413.5362	0.276
413.7413	0.2624
413.9464	0.2542
414.1514	0.249
414.3564	0.2504
414.5614	0.2593
414.7664	0.2495
414.9714	0.2507
415.1764	0.263
415.3813	0.2588
415.5863	0.2561
415.7912	0.2524
415.9961	0.2632
416.201	0.2609
416.4059	0.2578
416.6108	0.2646
416.8156	0.2544
417.0205	0.2554
417.2253	0.2576
417.4301	0.2548
417.6349	0.2511
417.8397	0.2471
418.0445	0.2542
418.2492	0.2466
418.454	0.2404
418.6587	0.254
418.8634	0.2565
419.0681	0.2594
419.2728	0.2587
419.4775	0.2594
419.6822	0.2497
419.8868	0.2505
420.0915	0.2442
420.2961	0.2432
420.5007	0.2501
420.7053	0.2376
420.9099	0.2473
421.1144	0.2428
421.319	0.2348
421.5235	0.238
421.728	0.2463
421.9325	0.2398
422.137	0.2341
422.3415	0.2332
422.546	0.2298
422.7504	0.241
422.9549	0.2415
423.1593	0.2368
423.3637	0.2349
423.5681	0.2392
423.7725	0.232
423.9769	0.2391
424.1812	0.2266
424.3856	0.2269
424.5899	0.2279
424.7942	0.231
424.9985	0.2252
425.2028	0.2347
425.4071	0.2195
425.6113	0.2372
425.8156	0.2214
426.0198	0.2261
426.224	0.2164
426.4282	0.2147
426.6324	0.2239
426.8366	0.2164
427.0407	0.2181
427.2449	0.2141
427.449	0.2145
427.6531	0.2322
427.8572	0.2201
428.0613	0.2157
428.2654	0.2108
428.4694	0.2076
428.6735	0.1999
428.8775	0.2166
429.0815	0.2054
429.2855	0.2028
429.4895	0.2024
429.6935	0.2044
429.8975	0.1946
430.1014	0.2021
430.3053	0.1973
430.5093	0.1938
430.7132	0.1838
430.9171	0.1864
431.1209	0.194
431.3248	0.1833
431.5286	0.1842
431.7325	0.193
431.9363	0.1825
432.1401	0.1803
432.3439	0.1888
432.5477	0.1727
432.7514	0.1724
432.9552	0.1753
433.1589	0.1641
433.3627	0.1799
433.5664	0.1697
433.7701	0.1826
433.9737	0.1676
434.1774	0.169
434.3811	0.1618
434.5847	0.1704
434.7883	0.1585
434.9919	0.1501
435.1955	0.1627
435.3991	0.1585
435.6027	0.1457
435.8062	0.1623
436.0098	0.1497
436.2133	0.1516
436.4168	0.1486
436.6203	0.1436
436.8238	0.1462
437.0272	0.1384
437.2307	0.1349
437.4341	0.1294
437.6375	0.1376
437.841	0.1237
438.0443	0.1301
438.2477	0.1247
438.4511	0.1225
438.6545	0.1303
438.8578	0.1306
439.0611	0.1248
439.2644	0.1215
439.4677	0.1183
439.671	0.1273
439.8743	0.1259
440.0775	0.1135
440.2808	0.1177
440.484	0.121
440.6872	0.115
440.8904	0.0967
441.0936	0.1008
441.2967	0.096
441.4999	0.0984
441.703	0.0989
441.9062	0.1097
442.1093	0.1101
442.3124	0.1033
442.5155	0.0931
442.7185	0.0887
442.9216	0.092
443.1246	0.0898
443.3276	0.0868
443.5307	0.087
443.7337	0.093
443.9366	0.0911
444.1396	0.0844
444.3426	0.0867
444.5455	0.0857
444.7484	0.0775
444.9513	0.0828
445.1542	0.082
445.3571	0.0779
445.56	0.0638
445.7628	0.0751
445.9657	0.0784
446.1685	0.0851
446.3713	0.076
446.5741	0.0692
446.7769	0.0678
446.9797	0.0773
447.1824	0.0655
447.3852	0.0576
447.5879	0.0577
447.7906	0.0606
447.9933	0.065
448.196	0.061
448.3986	0.0615
448.6013	0.0509
448.8039	0.0512
449.0066	0.0623
449.2092	0.0664
449.4118	0.06
449.6143	0.058
449.8169	0.0528
450.0195	0.0448
450.222	0.0533
450.4245	0.0508
450.627	0.0479
450.8295	0.051
451.032	0.0455
451.2345	0.0401
451.4369	0.0431
451.6394	0.0324
451.8418	0.0452
452.0442	0.0421
452.2466	0.0361
452.449	0.0432
452.6513	0.0384
452.8537	0.0345
453.056	0.0356
453.2583	0.0307
453.4607	0.0278
453.663	0.0391
453.8652	0.0304
454.0675	0.0457
454.2697	0.0339
454.472	0.0259
454.6742	0.0364
454.8764	0.0397
455.0786	0.0295
455.2808	0.0291
455.4829	0.0318
455.6851	0.0324
455.8872	0.0189
456.0893	0.0222
456.2915	0.0221
456.4935	0.028
456.6956	0.024
456.8977	0.0288
457.0997	0.0294
457.3018	0.0243
457.5038	0.029
457.7058	0.0316
457.9078	0.0309
458.1098	0.0288
458.3117	0.0319
458.5137	0.0143
458.7156	0.0292
458.9175	0.0223
459.1194	0.0185
459.3213	0.017
459.5232	0.0221
459.725	0.0203
459.9269	0.0242
460.1287	0.0203
460.3305	0.0284
460.5323	0.0185
460.7341	0.0204
460.9359	0.0126
461.1376	0.0205
461.3394	0.0182
461.5411	0.0186
461.7428	0.018
461.9445	0.0159
462.1462	0.0175
462.3479	0.0127
462.5495	0.0255
462.7512	0.0202
462.9528	0.0204
463.1544	0.0132
463.356	0.0102
463.5576	0.0221
463.7592	0.0229
463.9607	0.0165
464.1623	0.0145
464.3638	0.008
464.5653	0.0181
464.7668	0.02
464.9683	0.0089
465.1697	0.013
465.3712	0.0103
465.5726	0.0075
465.7741	0.0103
465.9755	0.0119
466.1769	0.0075
466.3782	0.0105
466.5796	0.0142
466.7809	0.0116
466.9823	0.0115
467.1836	0.0156
467.3849	0.0075
467.5862	0.0047
467.7875	0.0105
467.9887	0.0173
468.19	0.0132
468.3912	0.0241
468.5924	0.0101
468.7936	0.0188
468.9948	0.0038
469.196	0.0083
469.3972	-0.0021
469.5983	0.0175
469.7994	0.0103
470.0006	0.0033
470.2017	0.0153
470.4027	0.0183
470.6038	0.007
470.8049	0.0043
471.0059	0.0117
471.2069	0.0112
471.408	0.0114
471.6089	0.0181
471.8099	0.01
472.0109	0.0055
472.2119	0.016
472.4128	0.0108
472.6137	0.0164
472.8146	0.0073
473.0155	0.0137
473.2164	0.0089
473.4173	-0.0016
473.6181	0.0046
473.819	0.0066
474.0198	-0.0026
474.2206	-0.001
474.4214	0.0073
474.6222	-0.0025
474.8229	0.0077
475.0237	0.0164
475.2244	0.0145
475.4251	-0.0005
475.6258	-0.0001
475.8265	0.0108
476.0272	0.0077
476.2278	0.0072
476.4285	0.0019
476.6291	0.0141
476.8297	0.0031
477.0303	0.0024
477.2309	0.0113
477.4315	0.0022
477.632	0.0001
477.8326	0.0099
478.0331	0.0179
478.2336	0.0016
478.4341	0.0082
478.6346	0.0006
478.8351	0.0122
479.0355	0.0123
479.236	0.0114
479.4364	0.0071
479.6368	0.0018
479.8372	0.0052
480.0376	0.0006
480.2379	0.009
480.4383	0.0113
480.6386	-0.0015
480.8389	-0.001
481.0392	0.008
481.2395	0.0081
481.4398	0.0034
481.6401	0.011
481.8403	0.0101
482.0405	0.0007
482.2408	0.008
482.441	0.0056
482.6411	0.0103
482.8413	0.0014
483.0415	0.0143
483.2416	-0.0036
483.4417	0.0012
483.6419	-0.0004
483.8419	0.0103
484.042	0.0094
484.2421	-0.0029
484.4422	0.0055
484.6422	0.003
484.8422	0.0075
485.0422	0.0032
485.2422	0.0051
485.4422	0.004
485.6422	0.0045
485.8421	0.0062
486.042	0.0122
486.242	-0.0023
486.4419	0.0055
486.6417	0.0025
486.8416	0.0058
487.0415	-0.002
487.2413	-0.0009
487.4411	0.0096
487.641	0.0032
487.8408	0.0075
488.0405	0.0187
488.2403	-0.0022
488.4401	0.0099
488.6398	0.0102
488.8395	0.0072
489.0392	0.0041
489.2389	0.0025
489.4386	0.0023
489.6383	0.0081
489.8379	-0.0037
490.0376	0.011
490.2372	0.0058
490.4368	-0.0033
490.6364	0.0002
490.836	0.0118
491.0355	0.0012
491.2351	0.0042
491.4346	0.0026
491.6341	-0.004
491.8336	0.0032
492.0331	0.0027
492.2326	0.0085
492.432	0.0047
492.6315	0.0074
492.8309	0.0024
493.0303	0.0044
493.2297	0.0145
493.4291	-0.0019
493.6284	0.0087
493.8278	0.0038
494.0271	0.0105
494.2264	0.0046
494.4257	0.007
494.625	-0.0036
494.8243	0.0033
495.0236	0.0164
495.2228	0.0062
495.422	0.009
495.6213	0.0043
495.8205	0.0106
496.0196	0.0122
496.2188	-0.0012
496.418	0.0005
496.6171	-0.0007
496.8162	0.0045
497.0153	0.0113
497.2144	0.0123
497.4135	0.0108
497.6126	0.0058
497.8116	-0.0022
498.0107	0.0067
498.2097	0.0106
498.4087	0.006
498.6077	-0.0064
498.8067	0.0083
499.0056	0.0063
499.2046	0.0029
499.4035	0.0049
499.6024	-0.0068
499.8013	0.0081
500.0002	0.0035
500.199	0.0178
500.3979	-0.001
500.5967	0.0044
500.7956	0.0103
500.9944	0.0002
501.1932	0.0093
501.3919	0.0103
501.5907	0.0061
501.7895	0.0003
501.9882	0.0016
502.1869	0.0066
502.3856	0.0016
502.5843	0.0029
502.783	0.0006
502.9816	0.0058
503.1803	0.0079
503.3789	0.0064
503.5775	0.0058
503.7761	0.0056
503.9747	0.0071
504.1732	-0.0043
504.3718	0.0057
504.5703	0.0029
504.7689	-0.0011
504.9674	0.0116
505.1658	-0.0019
505.3643	0.0114
505.5628	0.0088
505.7612	0.0114
505.9597	0.0043
506.1581	0.0018
506.3565	0.0041
506.5549	-0.008
506.7532	0.0004
506.9516	0.0023
507.1499	0.0026
507.3482	0.0049
507.5465	0.0009
507.7448	0.0031
507.9431	0.0078
508.1414	0.0037
508.3396	0.0059
508.5379	0.0033
508.7361	0.0017
508.9343	0.0069
509.1325	0.0091
509.3306	-0.003
509.5288	0.0056
509.7269	0.009
509.9251	0.0077
510.1232	0.0097
510.3213	0.0104
510.5193	0.0071
510.7174	0.0068
510.9154	0.0084
511.1135	0.0024
511.3115	-0.0019
511.5095	0.0025
511.7075	0.0084
511.9055	0.0063
512.1034	0.0056
512.3014	0.0051
512.4993	0.0119
512.6972	0.0035
512.8951	0.011
513.093	0.0021
513.2908	0.0065
513.4887	0.0063
513.6865	0.004
513.8844	0.0123
514.0822	-0.0007
514.2799	-0.0065
514.4777	-0.0068
514.6755	0.0008
514.8732	0.0009
515.0709	-0.0077
515.2687	0.0032
515.4664	0.0155
515.664	0.0048
515.8617	0.0056
516.0594	0.0092
516.257	0.0036
516.4546	0.0212
516.6522	0.0005
516.8498	0.0032
517.0474	0.0093
517.2449	0.0002
517.4425	-0.0017
517.64	0.0068
517.8375	0.0157
518.035	-0.0014
518.2325	0.0004
518.43	0.0076
518.6274	-0.0023
518.8249	0.0072
519.0223	0.0136
519.2197	0.0058
519.4171	0.0025
519.6145	0.0034
519.8118	-0.0084
520.0092	-0.0026
520.2065	0.0113
520.4038	0.0063
520.6011	0.0048
520.7984	0.0123
520.9956	0.0097
521.1929	0.012
521.3901	0.0033
521.5874	0.0094
521.7846	-0.0062
521.9818	0.0002
522.1789	0.002
522.3761	0.0045
522.5732	0.0083
522.7704	-0.0087
522.9675	-0.0045
523.1646	-0.0044
523.3617	0.0045
523.5587	0.0019
523.7558	0.0031
523.9528	0.0154
524.1498	-0.0017
524.3468	-0.0046
524.5438	0.0065
524.7408	-0.0011
524.9378	0.0158
525.1347	0.0032
525.3316	0.0012
525.5285	-0.0039
525.7254	0.0102
525.9223	0.0097
526.1192	0.0125
526.316	0.0076
526.5129	-0
526.7097	-0.0008
526.9065	0.0164
527.1033	0.0033
527.3	-0.0053
527.4968	0.0106
527.6935	-0.0125
527.8903	0.0012
528.087	0.0021
528.2837	0.009
528.4804	0.0018
528.677	0.0007
528.8737	0.0074
529.0703	0.0068
529.2669	0.005
529.4635	-0.0017
529.6601	-0.0058
529.8567	-0.0037
530.0532	0.0022
530.2498	0.0067
530.4463	-0.005
530.6428	0.0012
530.8393	0.0166
531.0358	-0.0021
531.2322	-0.0012
531.4287	0.0095
531.6251	-0.0116
531.8215	0.002
532.0179	0.008
532.2143	0.004
532.4107	0.0028
532.607	-0.0051
532.8034	-0.0058
532.9997	-0.0026
533.196	0.0014
533.3923	0.0112
533.5886	0.0096
533.7848	0.0112
533.9811	0.0126
534.1773	0.0018
534.3735	0.0106
534.5697	-0.0028
534.7659	0.0033
534.9621	0.0091
535.1582	0.0011
535.3544	0.0067
535.5505	0.0065
535.7466	0.0083
535.9427	-0.0009
536.1387	-0.0011
536.3348	0.006
536.5308	0.008
536.7269	0.0019
536.9229	0.0077
537.1189	0.0134
537.3148	0.0057
537.5108	0.0024
537.7068	0.0179
537.9027	-0.0078
538.0986	0.0171
538.2945	-0.0013
538.4904	-0.0031
538.6863	0.0069
538.8821	0.0205
539.078	0.0059
539.2738	0.0085
539.4696	-0.0001
539.6654	0.0065
539.8611	0.0006
540.0569	0.0086
540.2526	0.0102
540.4484	-0.0093
540.6441	0.0041
540.8398	0.0184
541.0355	0.0021
541.2311	0.0053
541.4268	0.014
541.6224	0.0235
541.818	0.0058
542.0136	0.0063
542.2092	0.0099
542.4048	0.0061
542.6003	0.0059
542.7959	0.002
542.9914	0.009
543.1869	0.0024
543.3824	0.0073
543.5779	0.0086
543.7734	0.0113
543.9688	0.0072
544.1642	0.0062
544.3596	0.0086
544.555	0.0025
544.7504	0.0064
544.9458	0.0054
545.1411	-0.0072
545.3365	0.0011
545.5318	-0.002
545.7271	0.0071
545.9224	-0.0062
546.1177	0.0103
546.3129	0.004
546.5081	0.0037
546.7034	0.0066
546.8986	0.0126
547.0938	0.0079
547.289	0.0068
547.4841	0.0056
547.6793	0.0065
547.8744	0.007
548.0695	0
548.2646	0.0091
548.4597	0.007
548.6548	0.0199
548.8498	0.0047
549.0448	0.0005
549.2399	0.0111
549.4349	0.0017
549.6298	-0.0005
549.8248	-0.0037
550.0198	0.0079
550.2147	0.0041
550.4096	0.0014
550.6045	0.0014
550.7994	0.0012
550.9943	0.005
551.1892	-0.0168
551.384	0.0137
551.5788	0.0051
551.7737	0.0113
551.9685	0.0076
552.1632	0.0045
552.358	0.0028
552.5528	0.0039
552.7475	0.0029
552.9422	0.0137
553.1369	0.0037
553.3316	0.007
553.5263	0.0086
553.7209	0.0007
553.9156	0.0007
554.1102	0.0123
554.3048	0.0005
554.4994	0.0001
554.694	0.0119
554.8885	0.0081
555.0831	0.014
555.2776	0.0079
555.4721	0.0024
555.6666	0.0075
555.8611	0.0014
556.0555	0.0028
556.25	0.0126
556.4444	0.0038
556.6388	0.0057
556.8332	0.0064
557.0276	0.0056
557.222	0.0008
557.4163	0.0125
557.6107	0.0076
557.805	-0.0011
557.9993	-0.0004
558.1936	-0.007
558.3879	0.0101
558.5821	0.0031
558.7764	-0.0017
558.9706	0.0039
559.1648	0.0098
559.359	0.0078
559.5532	0.0014
559.7473	0.0016
559.9415	-0.0016
560.1356	0.0128
560.3297	-0.0054
560.5238	0.0145
560.7179	-0.0026
560.9119	-0.0003
561.106	-0.0089
561.3	0.0082
561.494	-0.0024
561.688	-0.0026
561.882	0.0056
562.076	0.0053
562.2699	0.0116
562.4639	0.0151
562.6578	0.0041
562.8517	-0.0022
563.0456	0.0047
563.2395	0.0091
563.4333	0.0016
563.6272	-0.0033
563.821	0.0062
564.0148	0.0022
564.2086	0.0036
564.4024	0.0166
564.5961	0.0103
564.7899	0.0165
564.9836	0.0069
565.1773	0.0104
565.371	0.0078
565.5647	0.0067
565.7584	0.0091
565.952	0.0024
566.1456	0.0067
566.3393	0.0167
566.5329	-0.0012
566.7264	0.0028
566.92	0.0086
567.1136	0.0091
567.3071	-0.0053
567.5006	0.0107
567.6941	0.0057
567.8876	0.0027
568.0811	0.0177
568.2745	0.0003
568.468	0.0053
568.6614	0.0112
568.8548	0.0098
569.0482	0.0097
569.2416	0.0058
569.4349	0.0016
569.6283	0.001
569.8216	0.0077
570.0149	0.0007
570.2082	0.0049
570.4015	0.0047
570.5947	0.0019
570.788	0.0056
570.9812	0.0043
571.1744	0.0048
571.3676	0.0044
571.5608	0.0042
571.754	0.0119
571.9471	0.0069
572.1402	0.0021
572.3333	0.0083
572.5264	0.0056
572.7195	0.0039
572.9126	0.0042
573.1057	0.0031
573.2987	-0.0011
573.4917	-0.0004
573.6847	-0.0002
573.8777	0.0099
574.0707	0.004
574.2636	0.0035
574.4566	0.0009
574.6495	0.0063
574.8424	0.0086
575.0353	0.0081
575.2281	0.0064
575.421	0.0011
575.6138	0.0061
575.8067	0.0075
575.9995	0.0002
576.1923	0.0068
576.385	0.004
576.5778	0.0094
576.7706	0.0067
576.9633	0.0054
577.156	-0.0002
577.3487	0.0023
577.5414	0.0022
577.734	0.0039
577.9267	0.0055
578.1193	0.0047
578.3119	0.0034
578.5045	0.0005
578.6971	0.0043
578.8897	0.0018
579.0822	0.006
579.2747	0.0048
579.4673	0.0072
579.6598	0.0038
579.8522	0.0028
580.0447	0.0092
580.2372	0.0099
580.4296	0.0115
580.622	0.0059
580.8144	0.0034
581.0068	0.003
581.1992	0.0058
581.3915	-0.0001
581.5839	0.0074
581.7762	0.0036
581.9685	0.0047
582.1608	0.0038
582.353	0.0043
582.5453	0.0058
582.7375	0.0033
582.9298	0.0016
583.122	0.0052
583.3142	0.0116
583.5063	0.0057
583.6985	-0.0028
583.8906	0.0036
584.0827	0.0054
584.2749	0.006
584.4669	0.0046
584.659	0.0064
584.8511	0.0095
585.0431	0.008
585.2352	0.0035
585.4272	0.0047
585.6192	0.004
585.8111	0.0024
586.0031	0.0049
586.195	0.0005
586.387	0.0046
586.5789	0.0068
586.7708	0.008
586.9627	0.0073
587.1545	0.0043
587.3464	0.0052
587.5382	0.0023
587.73	0.0114
587.9218	0.0034
588.1136	0.0005
588.3053	0.0035
588.4971	0.0037
588.6888	0.0033
588.8805	0.0002
589.0722	0.0105
589.2639	0.0056
589.4556	0.0066
589.6472	0.0101
589.8389	0.0037
590.0305	0.0044
590.2221	0.0029
590.4137	0.0039
590.6052	0.0022
590.7968	0.0091
590.9883	0.0015
591.1798	0.0043
591.3713	0.0007
591.5628	0.007
591.7543	0.0014
591.9458	0.0077
592.1372	-0.001
592.3286	0.0028
592.52	0.0027
592.7114	0.0084
592.9028	0.0071
593.0941	0.0011
593.2855	0.0049
593.4768	0.0125
593.6681	0.0099
593.8594	0.0054
594.0506	0.0049
594.2419	0.0023
594.4331	0.0018
594.6244	-0.0045
594.8156	0.0014
595.0067	0.0039
595.1979	0.0019
595.3891	0.0058
595.5802	0.0087
595.7713	0.0088
595.9624	0.0093
596.1535	0.0013
596.3446	0.0023
596.5357	0.0063
596.7267	0.0086
596.9177	0.0003
597.1087	0.0047
597.2997	0.0099
597.4907	0.003
597.6817	0.0087
597.8726	0.0109
598.0635	0.0008
598.2544	0.0012
598.4453	0.0072
598.6362	0.0027
598.827	0.0026
599.0179	0.0024
599.2087	0.0075
599.3995	0.0063
599.5903	0.0058
599.7811	0.0098
599.9718	-0.0003
600.1626	-0.0021
600.3533	0.0017
600.544	0.002
600.7347	0.0043
600.9254	0.0118
601.116	0.0018
601.3067	0.0039
601.4973	0.0065
601.6879	0.0012
601.8785	0.0014
602.0691	-0.0032
602.2596	0.0026
602.4502	0.0026
602.6407	0.0059
602.8312	0.008
603.0217	0.0097
603.2122	0.0019
603.4027	0.0083
603.5931	0.0062
603.7835	0.0049
603.9739	0.0048
604.1643	0.0132
604.3547	0.0126
604.5451	0.0095
604.7354	0
604.9257	0.0051
605.116	0.001
605.3063	0.0051
605.4966	0.0026
605.6869	0.0087
605.8771	0.002
606.0673	0.0028
606.2575	-0.0019
606.4477	0.0074
606.6379	0.0044
606.8281	-0.0017
607.0182	0.0023
607.2083	0.0057
607.3985	-0.0005
607.5885	0.0038
607.7786	0.0046
607.9687	0.0032
608.1587	0.0041
608.3488	0.0046
608.5388	0.0031
608.7288	-0.006
608.9187	0.0036
609.1087	0.0077
609.2986	0.0036
609.4886	0.0021
609.6785	0.0078
609.8684	-0.0002
610.0582	0.0027
610.2481	0.0006
610.4379	0.0022
610.6278	0.0049
610.8176	0.0127
611.0074	0.0028
611.1971	0.008
611.3869	0.0057
611.5766	-0.0036
611.7664	0.0058
611.9561	0.0116
612.1458	0.0036
612.3354	0.003
612.5251	0.0036
612.7147	0.0059
612.9044	0.0067
613.094	0.0006
613.2836	0.0006
613.4731	-0.0068
613.6627	0.0076
613.8522	-0.0001
614.0417	0.0115
614.2313	0.0016
614.4207	0.007
614.6102	0.0128
614.7997	0.0062
614.9891	0.0079
615.1785	0.0026
615.3679	0.0096
615.5573	0.0027
615.7467	-0.0065
615.9361	0.0078
616.1254	0.01
616.3147	0.0089
616.504	0.0058
616.6933	0.0111
616.8826	-0.0023
617.0718	0.0132
617.2611	0.0018
617.4503	0.0017
617.6395	0.0011
617.8287	0.0029
618.0179	0.0126
618.207	0.0045
618.3961	0.0003
618.5853	0.002
618.7744	0.0079
618.9634	0.0116
619.1525	-0.0036
619.3416	-0.0051
619.5306	0.0058
619.7196	0.0056
619.9086	0.0063
620.0976	-0.0046
620.2866	-0.0053
620.4755	0.0058
620.6645	0.014
620.8534	0.0083
621.0423	0.007
621.2312	0.004
621.42	-0.0022
621.6089	0.0026
621.7977	-0.0006
621.9865	0.005
622.1753	-0.0086
622.3641	-0.0068
622.5529	-0.0054
622.7416	0.0015
622.9303	0.0047
623.1191	0.011
623.3078	0.0028
623.4964	-0.0041
623.6851	0.0091
623.8737	0.0028
624.0624	-0.0087
624.251	0.0054
624.4396	0.0137
624.6282	0.0143
624.8167	-0.0018
625.0053	0.0145
625.1938	0.0094
625.3823	0.0199
625.5708	-0.0035
625.7593	0.001
625.9477	0.0099
626.1362	0.0022
626.3246	0.0007
626.513	0.0054
626.7014	0.002
626.8898	-0.0014
627.0781	0.0073
627.2665	0.0081
627.4548	0.0045
627.6431	0.0124
627.8314	0.0199
628.0197	0.0065
628.2079	-0.0069
628.3962	0.0064
628.5844	-0.0046
628.7726	-0.0034
628.9608	-0.0059
629.1489	0.0039
629.3371	-0.0064
629.5252	0.0041
629.7134	-0.0053
629.9015	0.0051
630.0895	-0.0019
630.2776	0.0162
630.4657	0.0037
630.6537	0.0046
630.8417	-0.0112
631.0297	-0.0016
631.2177	-0.0011
631.4057	0.0174
631.5936	0.0108
631.7815	-0.0058
631.9695	0.0163
632.1574	0.0073
632.3452	-0.0021
632.5331	0.0067
632.7209	0.0108
632.9088	0.0029
633.0966	0.0143
633.2844	0.0104
633.4722	0.0146
633.6599	0.0183
633.8477	-0.0038
634.0354	0.0045
634.2231	-0.0161
634.4108	-0.0146
634.5985	0.0165
634.7861	-0.0021
634.9738	-0.0112
635.1614	0.0049
635.349	0.0011
635.5366	-0.0052
635.7242	-0.0081
635.9117	-0.0037
636.0993	0.0052
636.2868	-0.0036
636.4743	0.0022
636.6618	-0.015
636.8492	-0.0023
637.0367	0.0036
637.2241	-0.0082
637.4115	0.0167
637.5989	0.0046
637.7863	0.0324
637.9737	0.0068
638.161	0.0164
638.3484	-0.0121
638.5357	0.0006
638.723	0.0134
638.9103	-0.021
639.0975	0.0016
639.2848	0.0077
639.472	0.0108
639.6592	0.0001
639.8464	-0.0053
640.0336	0.0072
640.2208	0.0041
640.4079	-0.0045
640.595	-0.0185
640.7821	0.015
640.9692	-0.0091
641.1563	0.0188
641.3434	0.0094
641.5304	0.0131
641.7174	0.0105
641.9044	-0.0124
642.0914	0.0191
642.2784	0.0127
642.4653	-0.0037
642.6523	0.0157
642.8392	-0.0023
643.0261	0.0026
643.213	-0.0014
643.3999	0.0285
643.5867	0.0048
643.7735	0.0026
643.9604	0.03
644.1472	0.0235
644.3339	-0.0058
644.5207	-0.001
644.7075	-0.0022
644.8942	0.0152
645.0809	0.0104
645.2676	-0.0042
645.4543	0.0065
645.6409	0.0134
645.8276	0.0048
646.0142	0.0122
646.2008	-0.0058
646.3874	-0.0097
646.574	-0.0133
646.7605	0.026
646.9471	-0.0001
647.1336	-0.0369
647.3201	0.0004
647.5066	0.0035
647.6931	0.0036
647.8795	0.0022
648.0659	-0.0011
648.2524	0.0046
648.4388	0.0032
648.6252	0.0188
648.8115	0.0137
648.9979	0.0109
649.1842	0.0181
649.3705	0.0177
649.5568	-0.014
649.7431	0.006
649.9294	-0.0082
650.1156	-0.0056
650.3018	0.0144
650.488	0.0135
650.6742	0.0126
650.8604	-0.003
651.0466	-0.0035
651.2327	-0.0012
651.4188	0.0029
651.6049	0.0262
651.791	0.0086
651.9771	0.003
652.1632	-0.0022
652.3492	0.0058
652.5352	0.0214
652.7212	0.0082
652.9072	-0.0095
653.0932	0.0122
653.2791	0.0034
653.465	0.0086
653.651	0.0064
653.8369	-0.0091
654.0227	-0.0056
654.2086	0.013
654.3944	-0.0025
654.5803	-0.0031
654.7661	0.0031
654.9519	-0.0053
655.1377	-0.0001
655.3234	-0.0001
655.5092	-0.0001
655.6949	-0.0001
655.8806	-0.0001
656.0663	-0.0001
656.2519	-0.0001
656.4376	-0.0001
656.6232	-0.0001
656.8088	-0.0001
656.9945	-0.0001
657.18	-0.0001
657.3656	-0.0001
657.5511	-0.0001
657.7367	-0.0001
657.9222	-0.0001
658.1077	-0.0001
658.2932	-0.0001
658.4786	-0.0001
658.6641	-0.0001
658.8495	-0.0001
659.0349	-0.0001
659.2203	-0.0001
659.4057	-0.0001
659.591	0.1467
659.7764	0.0265
659.9617	0.0157
660.147	0.0032
660.3323	-0.004
660.5176	0.0061
660.7028	-0.0023
660.888	0.0022
661.0733	0.0115
661.2585	0.0129
661.4436	0.0065
661.6288	0.0145
661.8139	-0.0031
661.9991	-0.0105
662.1842	-0.012
662.3693	0.0145
662.5544	0.0088
662.7394	0.0092
662.9245	0.0024
663.1095	-0.0032
663.2945	-0.0074
663.4795	-0.0172
663.6644	-0.0077
663.8494	0.003
664.0343	0.0187
664.2193	-0.0053
664.4042	0.0143
664.589	0.0051
664.7739	-0.0033
664.9587	-0.014
665.1436	-0.0109
665.3284	0.0202
665.5132	-0.0213
665.698	0.0295
665.8827	0.0058
666.0675	-0.0225
666.2522	-0.018
666.4369	0.0018
666.6216	0.0164
666.8063	-0.0075
666.9909	-0.0071
667.1756	-0.0356
667.3602	0.0005
667.5448	0.0005
667.7294	0.0092
667.9139	-0.0161
668.0985	0.0009
668.283	0.0102
668.4675	0.0153
668.652	0.0237
668.8365	-0.0014
669.0209	0.014
669.2054	0.0197
669.3898	0.0047
669.5742	0.0186
669.7586	0.0149
669.943	0.0113
670.1273	0.0088
670.3117	0.0145
670.496	-0.0071
670.6803	0.0118
670.8646	-0.012
671.0488	0.0057
671.2331	-0.0178
671.4173	0.0016
671.6015	0.001
671.7857	0.0155
671.9699	0.0065
672.1541	-0.0051
672.3382	-0.0073
672.5223	0.0092
672.7064	0.0008
672.8905	-0.0063
673.0746	0.0045
673.2587	0.0056
673.4427	0.0213
673.6267	0.0113
673.8107	0.02
673.9947	0.0106
674.1787	0.0045
674.3626	0.0027
674.5465	-0.0064
674.7304	0.0168
674.9143	-0.014
675.0982	0.0127
675.2821	0.0069
675.4659	-0.0194
675.6497	0.0103
675.8335	-0.0049
676.0173	-0.0098
676.2011	0.0117
676.3849	0.0034
676.5686	0.0161
676.7523	-0.0057
676.936	-0.0083
677.1197	-0.0009
677.3034	0.029
677.487	0.017
677.6706	0.001
677.8542	0.0035
678.0378	0.0061
678.2214	0.014
678.405	0.0029
678.5885	0.0098
678.772	0.0032
678.9555	0.0016
679.139	-0.0032
679.3225	0.0106
679.5059	-0.009
679.6894	0.0126
679.8728	-0.0035
680.0562	0.007
680.2395	-0.0041
680.4229	-0.0065
680.6062	-0.001
680.7896	-0.0119
680.9729	0.0068
681.1562	-0.0022
681.3394	-0.0061
681.5227	-0.01
681.7059	0.02
681.8891	0.0112
682.0723	-0.0126
682.2555	0.0036
682.4387	0.0123
682.6218	0.0092
682.805	0.0276
682.9881	0.0058
683.1712	0.0017
683.3542	0.0172
683.5373	0.0027
683.7203	0.0017
683.9034	0.0008
684.0864	0.0123
684.2694	0.0097
684.4523	0.0135
684.6353	-0.0001
684.8182	-0.0002
685.0011	0.0074
685.184	-0.005
685.3669	0.0219
685.5498	0.0032
685.7326	-0.0106
685.9154	0.0035
686.0982	0.0077
686.281	0.0012
686.4638	0.0039
686.6465	-0.0027
686.8293	-0.0146
687.012	0.0274
687.1947	0.0121
687.3774	0.0168
687.56	-0.0023
687.7427	0.0052
687.9253	-0.0142
688.1079	0.0266
688.2905	0.0011
688.4731	0.0031
688.6556	-0.009
688.8382	-0.0055
689.0207	0.0189
689.2032	0.0031
689.3857	-0.0061
689.5681	-0.0061
689.7506	0.0264
689.933	-0.0146
690.1154	0.0126
690.2978	0.021
690.4802	0.011
690.6626	0.0024
690.8449	0.0084
691.0272	-0.0019
691.2095	-0.0212
691.3918	-0.0003
691.5741	0.0015
691.7563	0.0096
691.9386	0.0243
692.1208	-0.0015
692.303	-0.0078
692.4852	-0.0022
692.6673	-0.0012
692.8495	-0.0054
693.0316	0.0125
693.2137	-0.0062
693.3958	-0.0004
693.5778	0.03
693.7599	0.0105
693.9419	-0.0097
694.1239	0.0071
694.3059	0.0165
694.4879	0.0065
694.6699	-0.0063
694.8518	-0.003
695.0337	0.0238
695.2157	0.0283
695.3975	-0.0033
695.5794	-0.0093
695.7613	-0.0095
695.9431	-0.0106
696.1249	0.0049
696.3067	-0.017
696.4885	0.0237
696.6703	-0.0084
696.852	-0.0004
697.0337	0.0111
697.2154	0.0111
697.3971	0.0212
697.5788	0.0126
697.7605	-0.0084
697.9421	0.0226
698.1237	0.0193
698.3053	-0.0022
698.4869	-0.0017
698.6685	-0.0177
698.85	0.0046
699.0315	-0.0075
699.213	0.0154
699.3945	-0.02
699.576	-0.0055
699.7575	0.0177
699.9389	0.0038
700.1203	0.012
700.3017	0.0154
700.4831	0.0101
700.6645	0.0194
700.8458	0.0067
701.0271	0.0475
701.2084	0.0081
701.3897	0.0123
701.571	-0.0095
701.7523	-0.0164
701.9335	0.0102
702.1147	0.0209
702.2959	0.0142
702.4771	0.0147
702.6583	-0.0156
702.8394	-0.0192
703.0205	0.0281
703.2016	-0.0202
703.3827	-0.0277
703.5638	0.0157
703.7449	0.0333
703.9259	-0.0005
704.1069	-0.0374
704.2879	0.0086
704.4689	0.0196
704.6499	-0.0002
704.8308	0.0078
705.0117	0.0101
705.1927	0.0123
705.3735	0.0353
705.5544	-0.0046
705.7353	-0.0246
705.9161	-0.0079
706.0969	-0.0064
706.2777	0.0044
706.4585	-0.0208
706.6393	0.0092
706.82	0.015
707.0007	0.0001
707.1815	-0.0138
707.3621	0.0308
707.5428	0.0224
707.7235	0.0082
707.9041	0.0041
708.0847	0.007
708.2653	0.0209
708.4459	0.0089
708.6265	-0.0061
708.807	-0.0137
708.9875	0.0054
709.168	-0.0078
709.3485	0.0155
709.529	0.0024
709.7095	-0.0103
709.8899	0.0088
710.0703	-0.0041
710.2507	-0.0044
710.4311	-0.0004
710.6115	0.0068
710.7918	-0.0089
710.9721	0.0101
711.1524	-0.0045
711.3327	-0.0212
711.513	0.0011
711.6932	0.0032
711.8735	0.0347
712.0537	0.0118
712.2339	-0.0128
712.4141	0.0078
712.5942	-0.0001
712.7744	0.0049
712.9545	-0.002
713.1346	0.0338
713.3147	-0.0068
713.4947	-0.0069
713.6748	0.0044
713.8548	0.0175
714.0348	0.0148
714.2148	0.0086
714.3948	0.0207
714.5748	0.0135
714.7547	0.0218
714.9346	0.0081
715.1145	-0.0031
715.2944	0.004
715.4743	0.0252
715.6541	-0.0231
715.834	0.014
716.0138	0.0298
716.1936	-0.0039
716.3733	0.0131
716.5531	0.0085
716.7328	0.0365
716.9126	-0.0002
717.0923	-0.0192
717.2719	0.0072
717.4516	0.0111
717.6312	-0.0168
717.8109	0.0093
717.9905	0.0094
718.1701	0.0291
718.3496	0.0245
718.5292	0.0029
718.7087	0.0089
718.8882	0.0125
719.0677	-0.0102
719.2472	-0.0122
719.4267	-0.0151
719.6061	-0.0031
719.7856	0.0218
719.965	0.0045
720.1443	-0.0174
720.3237	-0.0083
720.5031	-0.0047
720.6824	-0.0121
720.8617	0.0025
721.041	0.0431
721.2203	-0.0117
721.3995	0.0003
721.5788	0.0143
721.758	0.0019
721.9372	0.0113
722.1164	-0.0074
722.2956	-0.0105
722.4747	0.0325
722.6538	0.0016
722.8329	0.0116
723.012	-0.0023
723.1911	-0.0023
723.3702	0.0148
723.5492	0.0111
723.7282	0.002
723.9072	0.0203
724.0862	0.0021
724.2652	0.0033
724.4441	-0.0177
724.623	-0.0076
724.8019	0.0024
724.9808	0.0194
725.1597	0.0095
725.3385	0.0154
725.5174	0.0122
725.6962	0.0255
725.875	0.0106
726.0538	0.0139
726.2325	0.0072
726.4112	0.001
726.59	-0.0168
726.7687	-0.0304
726.9474	-0.0097
727.126	-0.0039
727.3047	-0.0242
727.4833	-0.0039
727.6619	-0.0026
727.8405	-0.0133
728.0191	0.0329
728.1976	-0.0029
728.3762	0.0108
728.5547	-0.0151
728.7332	0.021
728.9116	-0.0078
729.0901	-0.0091
729.2686	0.0104
729.447	-0.0351
729.6254	0.0043
729.8038	0.0056
729.9821	-0.0372
730.1605	0.0073
730.3388	0.0031
730.5171	0.0147
730.6954	-0.0145
730.8737	-0.0067
731.0519	-0.0143
731.2302	0.0157
731.4084	0.0013
731.5866	-0.0058
731.7648	0.002
731.9429	-0.0021
732.1211	0.0089
732.2992	-0.0104
732.4773	-0.0082
732.6554	0.0025
732.8335	0.01
733.0115	0.01
733.1896	-0.0028
733.3676	-0.0012
733.5456	-0.0032
733.7235	-0.0175
733.9015	0.0174
734.0794	0.0006
734.2574	-0.0126
734.4353	0.0112
734.6131	0.0016
734.791	0.0013
734.9689	-0.0026
735.1467	-0.0094
735.3245	0.0191
735.5023	0.0159
735.68	-0.0125
735.8578	0.0105
736.0355	-0.0009
736.2132	0.0036
736.3909	0.0208
736.5686	-0.0006
736.7463	-0.0168
736.9239	0.018
737.1015	0.004
737.2791	-0.0033
737.4567	0.0103
737.6343	-0.0166
737.8118	0.0095
737.9894	0.0041
738.1669	0.0169
738.3444	0.0142
738.5218	-0.0093
738.6993	0.0125
738.8767	0.0002
739.0541	-0.0008
739.2315	-0.0027
739.4089	0.0205
739.5863	-0.0061
739.7636	0.0033
739.9409	-0.003
740.1182	-0.0081
740.2955	0.0193
740.4728	-0.0087
740.65	-0.0094
740.8272	0.0303
741.0044	-0.0122
741.1816	0.0367
741.3588	-0.0192
741.5359	-0.0273
741.7131	0.0206
741.8902	-0.0083
742.0673	-0.0195
742.2444	0.0295
742.4214	0.0048
742.5985	0.0066
742.7755	0.0029
742.9525	-0.0171
743.1295	-0.0294
743.3064	-0.0069
743.4834	0.0114
743.6603	0.042
743.8372	-0.0393
744.0141	0.032
744.191	0.0008
744.3678	-0.0272
744.5446	0.0258
744.7215	-0.0107
744.8982	0.0148
745.075	0.0458
745.2518	0.0095
745.4285	0.0033
745.6052	-0.0309
745.7819	-0.0025
745.9586	-0.0086
746.1353	-0.0152
746.3119	0.027
746.4885	0.0354
746.6651	0.0161
746.8417	0.0049
747.0183	0.02
747.1948	-0.0019
747.3714	0.0112
747.5479	0.0142
747.7244	-0.0297
747.9008	-0.0277
748.0773	0.0527
748.2537	0.0469
748.4301	0.0299
748.6065	-0.0095
748.7829	-0.0229
748.9593	-0.0062
749.1356	0.0054
749.3119	0.0131
749.4882	0.03
749.6645	0.0051
749.8408	0.0047
750.017	0.0073
750.1933	-0.0213
750.3695	-0.0056
750.5457	-0.0161
750.7218	-0.008
750.898	-0.0025
751.0741	0.0241
751.2502	0.0002
751.4263	-0.0125
751.6024	0.012
751.7784	-0.0286
751.9545	0.0054
752.1305	-0.0157
752.3065	-0.0063
752.4825	0.0112
752.6584	0.003
752.8344	0.0017
753.0103	0.0035
753.1862	0.0167
753.3621	0.0165
753.5379	0.0066
753.7138	-0.0015
753.8896	0.0062
754.0654	-0.0102
754.2412	0.027
754.417	0.0351
754.5927	0.0054
754.7685	-0.0048
754.9442	0.0239
755.1199	0.012
755.2956	0.0107
755.4712	0.0157
755.6469	-0.0047
755.8225	0.0129
755.9981	0.003
756.1736	-0.0003
756.3492	-0.0092
756.5248	0.0182
756.7003	-0.0139
756.8758	0.011
757.0513	-0.009
757.2267	0.0193
757.4022	0.0089
757.5776	0.0045
757.753	0.0158
757.9284	0.0026
758.1038	0.0126
758.2791	0.0072
758.4545	-0.019
758.6298	0.0195
758.8051	-0.0122
758.9803	0.0144
759.1556	0.0008
759.3308	-0.0059
759.506	0.007
759.6812	0.007
759.8564	-0.0057
760.0316	-0.0122
760.2067	0.017
760.3819	0.0085
760.557	0.0033
760.732	-0.0072
760.9071	0.0208
761.0821	0.0018
761.2572	-0.0129
761.4322	0.0044
761.6072	0.0019
761.7821	-0.0359
761.9571	0.0075
762.132	-0.0009
762.3069	0.0089
762.4818	-0.0047
762.6567	-0.0131
762.8316	0.0285
763.0064	0.0076
763.1812	-0.0139
763.356	-0.0163
763.5308	0.0253
763.7055	-0.0057
763.8803	0.0024
764.055	-0.0099
764.2297	-0.0108
764.4044	0.0006
764.579	0.0008
764.7537	0.0046
764.9283	0.0177
765.1029	0.0009
765.2775	0.0134
765.4521	0.0022
765.6266	-0.0078
765.8011	0.0043
765.9756	0.0316
766.1501	-0.0171
766.3246	0.0127
766.4991	-0.0129
766.6735	0.0259
766.8479	-0.0086
767.0223	-0.0168
767.1967	-0.0157
767.371	-0.0213
767.5454	-0.0016
767.7197	0.0095
767.894	-0.0081
768.0683	0.0082
768.2425	0.0145
768.4168	0.0046
768.591	-0.0026
768.7652	0.0067
768.9394	-0.0404
769.1135	-0.0113
769.2877	0.0351
769.4618	0.0173
769.6359	0.0036
769.81	0.0166
769.984	0.0132
770.1581	-0.0075
770.3321	0.0177
770.5061	-0.0079
770.6801	0.0334
770.8541	0.0065
771.028	0.059
771.202	0.0095
771.3759	-0.0051
771.5498	0.0049
771.7236	0.0075
771.8975	0.0058
772.0713	0.019
772.2451	-0.0225
772.4189	0.0243
772.5927	-0.0385
772.7665	-0.011
772.9402	0.004
773.1139	-0.0024
773.2876	0.0076
773.4613	0.035
773.635	0.0269
773.8086	0.0337
773.9822	0.0283
774.1558	0.0654
774.3294	0.0352
774.503	-0.0244
774.6765	0.0185
774.8501	-0.0097
775.0236	0.0325
775.1971	0.0209
775.3705	-0.0034
775.544	-0.0289
775.7174	-0.037
775.8908	0.0361
776.0642	0.0295
776.2376	0.0124
776.4109	-0.0121
776.5843	-0.0003
776.7576	0.0048
776.9309	-0.0011
777.1041	-0.0151
777.2774	-0.0044
777.4506	-0.0434
777.6238	0.0041
777.797	-0.0009
777.9702	0.0004
778.1434	-0.0248
778.3165	-0.0474
778.4896	-0.0471
778.6627	0.0342
778.8358	-0.0194
779.0089	-0.0506
779.1819	-0.0071
779.3549	0.0062
779.5279	-0.0369
779.7009	0.032
779.8739	0.0861
780.0468	-0.04
780.2197	0.0279
780.3926	-0.0402
780.5655	-0.0279
780.7384	0.0102
780.9112	-0.002
781.0841	0.0101
781.2569	0.0234
781.4297	-0.0015
781.6024	0.0161
781.7752	0.0377
781.9479	0.0389
782.1206	0.0165
782.2933	0.0078
782.466	0.0014
782.6386	0.0257
782.8113	-0.006
782.9839	0.0039
783.1565	0.0341
783.329	0.0004
783.5016	-0.0064
783.6741	-0.0045
783.8466	0.0306
784.0191	-0.0036
784.1916	-0.0336
784.3641	-0.0712
784.5365	0.0074
784.7089	0.0022
784.8813	0.0208
785.0537	0.0137
785.2261	-0.0177
785.3984	-0.0057
785.5707	-0.0083
785.743	0.0617
785.9153	-0.0377
786.0876	-0.0003
786.2598	0.0251
786.432	0.0369
786.6042	0.0326
786.7764	0.0119
786.9486	-0.0455
787.1207	0.0592
787.2928	0.016
787.4649	0.0251
787.637	-0.0043
787.8091	0.0051
787.9811	0.0236
788.1532	-0.0059
788.3252	-0.0002
788.4972	-0.0153
788.6691	-0.0106
788.8411	0.0101
789.013	-0.0002
789.1849	-0.0142
789.3568	-0.035
789.5287	0.0367
789.7005	-0.0716
789.8723	-0.0096
790.0442	-0.0518
790.2159	-0.0417
790.3877	0.0566
790.5595	0.0091
790.7312	0.0286
790.9029	-0.0451
791.0746	0.0053
791.2463	-0.0827
791.4179	-0.0501
791.5896	0.0398
791.7612	0.0128
791.9328	0.0332
792.1044	0.0327
792.2759	-0.0186
792.4474	0.0223
792.619	-0.0331
792.7905	0.0123
792.9619	0.0535
793.1334	-0.0082
793.3048	0.052
793.4762	0.0022
793.6476	-0.0344
793.819	-0.0081
793.9904	-0.0174
794.1617	-0.0411
794.333	0.011
794.5043	0.0228
794.6756	-0.0019
794.8469	0.0242
795.0181	-0.0071
795.1893	0.0067
795.3605	-0.0093
795.5317	-0.0081
795.7029	-0.0111
795.874	0.0187
796.0452	-0.0133
796.2163	0.0429
796.3873	0.0359
796.5584	0.0208
796.7294	0.001
796.9005	-0.0135
797.0715	-0.0715
797.2425	0.0696
797.4134	0.0864
797.5844	0.0251
797.7553	-0.1044
797.9262	0.065
798.0971	0.041
798.2679	-0.0341
798.4388	0.0192
798.6096	-0.0281
798.7804	-0.0668
798.9512	0.0297
799.122	-0.0613
799.2927	0.0159
799.4635	-0.0078
799.6342	-0.071
799.8049	0.0304
799.9755	-0.0749
800.1462	-0.0085
800.3168	-0.0441
800.4874	-0.0836
800.658	0.0595
800.8286	-0.0347
800.9991	-0.0264
801.1696	-0.0525
801.3402	-0.0007
801.5106	-0.054
801.6811	-0.0247
801.8516	0.0819
802.022	-0.0244
802.1924	0.0453
802.3628	0.0072
802.5332	0.0528
802.7035	0.0172
802.8739	0.0013
803.0442	-0.0364
803.2145	0.0212
803.3847	0.012
803.555	0.0563
803.7252	0.0175
803.8954	0.0011
804.0656	-0.0005
804.2358	-0.006
804.4059	0.0282
804.5761	-0.0173
804.7462	0.0243
804.9163	0.0493
805.0864	0.0245
805.2564	-0.0938
805.4264	0.0044
805.5965	-0.0088
805.7665	-0.0227
805.9364	0.025
806.1064	-0.0384
806.2763	0.0006
806.4462	0.0517
806.6161	-0.0175
806.786	-0.0179
806.9559	0.0247
807.1257	0.0078
807.2955	-0.0049
807.4653	0.0554
807.6351	-0.0148
807.8048	-0.0269
807.9746	0.0637
808.1443	-0.0292
808.314	0.0623
808.4837	0.0359
808.6533	-0.0436
808.8229	-0.067
808.9926	0.0423
809.1622	0.0518
809.3317	-0.032
809.5013	0.0517
809.6708	0.0061
809.8403	0.1154
810.0098	0.0269
810.1793	-0.0481
810.3488	-0.0139
810.5182	0.0396
810.6876	-0.0026
810.857	-0.0604
811.0264	-0.0229
811.1958	0.0563
811.3651	0.0259
811.5344	0.0822
811.7037	0.1009
811.873	0.1289
812.0422	-0.1111
812.2115	-0.0256
812.3807	-0.1837
812.5499	0.0176
812.7191	-0.1202
812.8882	-0.0756
813.0574	-0.031
813.2265	0.0214
813.3956	0.0272
813.5646	0.0599
813.7337	0.0195
813.9027	-0.0528
814.0718	0.0951
814.2407	0.0398
814.4097	-0.0114
814.5787	0.0539
814.7476	0.052
814.9165	0.0118
815.0854	0.0287
815.2543	-0.0597
815.4232	0.1463
815.592	0.1804
815.7608	-0.1855
815.9296	-0.0703
816.0984	0.1101
816.2671	-0.2127
816.4359	0.131
816.6046	0.1813
816.7733	-0.1355
816.942	-0.0268
817.1106	0.0179
817.2793	-0.0123
817.4479	-0.0147
817.6165	-0.0098
817.785	0.0344
817.9536	-0.0254
818.1221	0.1115
818.2906	-0.0994
818.4591	-0.0369
818.6276	-0.0032
818.7961	-0.0999
818.9645	0.1869
819.1329	0.0863
819.3013	-0.1948
819.4697	-0.0178
819.638	-0.0359
819.8064	0.0055
819.9747	0.0436
820.143	-0.0499
820.3113	-0.0134
820.4795	-0.0169
820.6477	0.0377
820.816	0.0569
820.9842	0.0592
821.1523	0.0062
821.3205	0.0646
821.4886	-0.0509
821.6567	-0.0654
821.8248	0.1111
821.9929	-0.1619
822.1609	0.0715
822.329	-0.1056
822.497	0.0323
822.665	0.0465
822.833	-0.0196
823.0009	0.0316
823.1688	0.1365
823.3367	-0.1651
823.5046	-0.071
823.6725	-0.1468
823.8404	0.0081
824.0082	0.0167
824.176	-0.0578
824.3438	0.095
824.5116	0.0951
824.6793	0.1863
824.847	-0.2026
825.0147	-0.0765
825.1824	-0.0871
825.3501	-0.026
825.5177	0.0872
825.6854	-0.0212
825.853	0.0427
826.0206	-0.1386
826.1881	0.0652
826.3557	0.0024
826.5232	0.0311
826.6907	-0.0641
826.8582	-0.0303
827.0257	0.1361
827.1931	0.0334
827.3605	0.0064
827.528	-0.0269
827.6953	-0.2135
827.8627	-0.18
828.03	-0.0227
828.1974	-0.0719
828.3647	0.3141
828.532	0.0497
828.6992	-0.0203
828.8665	-0.223
829.0337	0.0462
829.2009	-0.1436
829.3681	-0.0462
829.5352	-0.2694
829.7024	0.1354
829.8695	0.0141
830.0366	0.1782
830.2037	0.1153
830.3707	0.0021
830.5378	-0.1214
830.7048	-0.0061
830.8718	0.0839
831.0388	-0.2021
831.2057	-0.1211
831.3727	-0.5414
831.5396	-0.0251
831.7065	-0.5166
831.8734	0.0235
832.0402	0.2127
832.2071	-0.6256
832.3739	-0.2758
832.5407	-1.2304
832.7075	-0.4316
832.8742	-0
833.041	0.067
833.2077	0.2996
833.3744	0.0194
833.541	0.0174
833.7077	-0.1615
833.8743	-0.0178
834.0409	-0.0815
834.2075	0.0481
834.3741	-0.2102
834.5407	-0.094
834.7072	0.1729
834.8737	0.1275
835.0402	-0.086
835.2067	-0.1173
835.3731	-0.0802
835.5395	0.0707
835.706	0.062
835.8723	-0.0723
836.0387	-0
836.2051	0.2832
836.3714	-0.1407
836.5377	-0.0105
836.704	0.003
836.8703	-0.0717
837.0365	-0.9709
837.2027	0.194
837.3689	-0.0629
837.5351	-0.0781
837.7013	-0.0131
837.8674	-0.5039
838.0335	-0.0987
838.1997	-0.3836
838.3657	-0
838.5318	-0.4306
838.6978	-0
838.8639	-0.4462
839.0299	0.1914
839.1958	-0.015
839.3618	-0.2023
839.5277	0.2243
839.6937	-0.3397
839.8596	-0.2362
840.0254	-0.035
840.1913	-0.333
840.3571	-0.2294
840.523	-0
840.6888	-0.0429
840.8545	-0.5758
841.0203	0.067
841.186	-0.083
841.3517	-0.3526
841.5174	0.1045
841.6831	0.1339
841.8488	-0.0998
842.0144	-0.0905
842.18	0.1747
842.3456	-0.3461
842.5112	-0
842.6767	-0.0366
842.8422	-0.173
843.0077	0.0965
843.1732	-0.4567
843.3387	0.3111
843.5042	-0
843.6696	-0.3357
843.835	-0.1506
844.0004	-0.126
844.1657	-0
844.3311	-0.3114
844.4964	-0.5423
844.6617	0.1527
844.827	0.5332
844.9923	0.4348
845.1575	-0.0301
845.3227	-0.2331
845.4879	-0.528
845.6531	0.025
845.8183	0.1222
845.9834	-0
846.1485	0.321
846.3136	-0.1952
846.4787	0.4465
846.6438	0.2138
846.8088	0.084
846.9738	-0.2374
847.1388	0.0401
847.3038	0.4902
847.4687	-0
847.6337	-0.5655
847.7986	-0.2381
847.9635	0.3091
848.1284	-0
848.2932	-0.0806
848.458	-0
848.6228	0.008
848.7876	-0
848.9524	-0.371
849.1172	-1.5546
849.2819	-0.6796
849.4466	0.3244
849.6113	0.2531
849.7759	0.699
849.9406	0.084
850.1052	-0.2653
850.2698	-0
850.4344	-0.4988
850.599	-0.1529
850.7635	0.5605
850.928	0.316
851.0925	0.2857
851.257	0.2847
851.4215	0.0719
851.5859	-0.1007
851.7503	-0
851.9147	0.2137
852.0791	0.9319
852.2434	0.4632
852.4078	-0
852.5721	0.4242
852.7364	-0.1128
852.9007	-0.1615
853.0649	-0
853.2291	-0.2344
853.3934	-0
853.5575	-0.2878
853.7217	0.2471
853.8859	-0.1189
854.05	-0.5396
854.2141	0.664
854.3782	-0.3839
854.5423	-0.3975
854.7063	-0.1441
854.8703	0.507
855.0343	-0.2868
855.1983	-0.0652
855.3623	0.3338
855.5262	-0
855.6901	0.3789
855.854	0.3909
856.0179	0.0805
856.1818	0.9575
856.3456	0.2924
856.5094	-0
856.6732	-0.2203
856.837	-1.4134
857.0008	-0.1425
857.1645	-0.6668
857.3282	-0.8042
857.4919	-0.0469
857.6556	-0.6735
857.8192	-0.3752
857.9828	-0.3722
858.1465	0.6276
858.31	-0
858.4736	-0
858.6372	-0.4706
858.8007	-0.324
858.9642	0.226
859.1277	-0
859.2911	-0.4693
859.4546	-0
859.618	-0.1156
859.7814	0.1395
859.9448	-0
860.1081	-0
860.2715	-1.3102
860.4348	0.1125
860.5981	0.314
860.7614	-0.3149
860.9246	-0.1975
861.0879	-0
861.2511	-0.0611
861.4143	-0
861.5774	-0.0853
861.7406	-0.2883
861.9037	-0
862.0668	-0.45
862.2299	0.684
862.393	-0
862.556	-0.4264
862.7191	-0.3975
862.8821	0.3534
863.0451	0.145
863.208	-0.479
863.371	-0.5838
863.5339	0.1154
863.6968	-0
863.8597	-0.4787
864.0225	-0.1323
864.1854	-0
864.3482	-0.699
864.511	0.0197
864.6737	1.0929
864.8365	-0
864.9992	-0.1323
865.1619	-0.4878
865.3246	-0
865.4873	-0
865.65	-0
865.8126	0.1528
865.9752	-0.4284
866.1378	0.2034
866.3004	-0.4242
866.4629	-1.7381
866.6254	-0.3662
866.7879	-0.3291
866.9504	-0
867.1129	0.699
867.2753	0.2983
867.4377	-0.3562
867.6001	0.3141
867.7625	0.3443
867.9249	-0.2986
868.0872	0.9912
868.2495	-0
868.4118	0.504
868.5741	-0.4628
868.7363	-0
868.8986	-0
869.0608	-0.6736
869.223	-0.6925
869.3851	-0
869.5473	-0.0435
869.7094	-0
869.8715	-0.6476
870.0336	0.0037
870.1957	-0
870.3577	1.0533
870.5197	0.1564
870.6817	-0.8142
870.8437	-0.333
871.0057	0.1405
871.1676	-0.0345
871.3295	-0.297
871.4914	-0
871.6533	-0.3208
871.8151	0.6491
871.977	-0
872.1388	0.3417
872.3006	0.0617
872.4623	-0.7827
872.6241	-0
872.7858	-0.195
872.9475	-0
873.1092	-0.1934
873.2709	0.2334
873.4325	-1.6641
873.5941	-0
873.7557	-0.1301
873.9173	-0.1301
874.0789	0.0964
874.2404	-0
874.4019	-0.0461
874.5634	0.4358
874.7249	-0
874.8863	-0
875.0478	-0.2345
875.2092	1.4969
875.3706	0.5241
875.5319	0.0432
875.6933	-0
875.8546	0.0527
876.0159	0.1626
876.1772	-0.4944
876.3385	-0.0499
876.4997	-0.2402
876.6609	-0
876.8221	-0
876.9833	-0
877.1445	0.2117
877.3056	-0.538
877.4667	-0
877.6278	-0.1721
877.7889	0.0436
877.9499	0.4368
878.111	-0.7702
878.272	-0.4085
878.433	-0.2393
878.5939	0.9258
878.7549	-0.0489
878.9158	-0
879.0767	-0
879.2376	0.2013
879.3984	0.2247
879.5593	0.0042
879.7201	-1.6952
879.8809	0.6268
880.0417	-0.3103
880.2024	0.3173
880.3632	0.2918
880.5239	0.0536
880.6846	-0.4265
880.8452	0.0044
881.0059	-1.1309
881.1665	-0.2995
881.3271	-0
881.4877	0.1052
881.6483	-0
881.8088	-0
881.9693	-0.6329
882.1298	-0.6329
882.2903	-0.6329
