Data from D4ACN5uM440nmA_Absorbance_13-50-25-552.txt Node
Date: Fri Feb 21 13:50:25 GMT 2025
User: LASERRRRR
Spectrometer: FLMT03099
Trigger mode: 0
Integration Time (sec): 1.500000E-2
Scans to average: 1
Electric dark correction enabled: true
Nonlinearity correction enabled: false
Boxcar width: 0
XAxis mode: Wavelengths
Number of Pixels in Spectrum: 3648
>>>>>Begin Spectral Data<<<<<
179.3399	-0.2663
179.5586	-0.2663
179.7771	-0.2663
179.9957	0.3094
180.2143	-1.5563
180.4329	-0
180.6514	-0
180.8699	-0.0264
181.0885	-0
181.307	-0.1095
181.5255	0.5279
181.744	0.1726
181.9625	-0
182.181	-0
182.3994	-0.3904
182.6179	-0
182.8363	0.188
183.0547	-0
183.2732	-0.0427
183.4916	0.343
183.71	0.1364
183.9284	-0.0954
184.1467	0.6743
184.3651	0.0156
184.5835	0.1317
184.8018	0.1598
185.0201	0.0706
185.2385	0.2676
185.4568	0.5237
185.6751	0.164
185.8934	0.2424
186.1117	0.1003
186.3299	0.1946
186.5482	0.4284
186.7664	0.1015
186.9847	0.0681
187.2029	0.0426
187.4211	0.0058
187.6393	0.0181
187.8575	0.2471
188.0757	0.7989
188.2939	0.0783
188.512	0.3796
188.7302	0.1481
188.9483	0.1613
189.1665	0.4085
189.3846	0.1877
189.6027	0.2946
189.8208	0.2697
190.0389	0.2863
190.257	0.1069
190.475	0.014
190.6931	0.2664
190.9111	0.0808
191.1292	0.2859
191.3472	0.0409
191.5652	0.3064
191.7832	0.2626
192.0012	0.2721
192.2192	0.1865
192.4371	0.1538
192.6551	0.2182
192.873	0.1373
193.091	0.2491
193.3089	0.2089
193.5268	0.2533
193.7447	0.2486
193.9626	0.3093
194.1805	0.2008
194.3984	0.197
194.6162	0.2656
194.8341	0.335
195.0519	0.3321
195.2697	0.2833
195.4875	0.3058
195.7054	0.3781
195.9231	0.2307
196.1409	0.2935
196.3587	0.3479
196.5765	0.3707
196.7942	0.2909
197.012	0.3727
197.2297	0.367
197.4474	0.4203
197.6651	0.3766
197.8828	0.3464
198.1005	0.3974
198.3182	0.401
198.5358	0.422
198.7535	0.3292
198.9711	0.3755
199.1888	0.3148
199.4064	0.3763
199.624	0.3919
199.8416	0.365
200.0592	0.3984
200.2767	0.4081
200.4943	0.4242
200.7119	0.3916
200.9294	0.3938
201.1469	0.4181
201.3645	0.4367
201.582	0.3998
201.7995	0.4763
202.017	0.3771
202.2344	0.4093
202.4519	0.3782
202.6694	0.3739
202.8868	0.4065
203.1042	0.4248
203.3217	0.3905
203.5391	0.3871
203.7565	0.3688
203.9739	0.3692
204.1913	0.3371
204.4086	0.3215
204.626	0.3437
204.8433	0.3455
205.0607	0.3686
205.278	0.3653
205.4953	0.3483
205.7126	0.3345
205.9299	0.3415
206.1472	0.3232
206.3644	0.3368
206.5817	0.3432
206.7989	0.3592
207.0162	0.3259
207.2334	0.3071
207.4506	0.2897
207.6678	0.3252
207.885	0.2901
208.1022	0.3413
208.3194	0.2608
208.5365	0.2865
208.7537	0.2891
208.9708	0.2887
209.1879	0.2689
209.405	0.2765
209.6222	0.279
209.8392	0.2906
210.0563	0.2997
210.2734	0.2575
210.4905	0.2827
210.7075	0.2837
210.9245	0.2613
211.1416	0.2673
211.3586	0.2667
211.5756	0.2546
211.7926	0.2574
212.0096	0.273
212.2265	0.2569
212.4435	0.2342
212.6604	0.2376
212.8774	0.2428
213.0943	0.2408
213.3112	0.2513
213.5281	0.2475
213.745	0.2362
213.9619	0.2335
214.1788	0.2663
214.3956	0.2415
214.6125	0.2612
214.8293	0.258
215.0461	0.2394
215.2629	0.2539
215.4798	0.2615
215.6965	0.2475
215.9133	0.2329
216.1301	0.2434
216.3469	0.2442
216.5636	0.2435
216.7803	0.2521
216.9971	0.2602
217.2138	0.2393
217.4305	0.2452
217.6472	0.2305
217.8639	0.2496
218.0805	0.2524
218.2972	0.2465
218.5138	0.269
218.7305	0.2527
218.9471	0.2468
219.1637	0.2617
219.3803	0.2632
219.5969	0.2641
219.8135	0.2741
220.0301	0.259
220.2466	0.2586
220.4632	0.2555
220.6797	0.2592
220.8962	0.2534
221.1127	0.2584
221.3292	0.2597
221.5457	0.2723
221.7622	0.2616
221.9787	0.2914
222.1951	0.2817
222.4116	0.2765
222.628	0.279
222.8444	0.28
223.0608	0.2734
223.2772	0.2825
223.4936	0.2757
223.71	0.291
223.9264	0.2876
224.1427	0.2907
224.3591	0.2842
224.5754	0.2945
224.7917	0.2764
225.008	0.2899
225.2243	0.3075
225.4406	0.2865
225.6569	0.3056
225.8732	0.32
226.0894	0.3041
226.3057	0.3155
226.5219	0.3024
226.7381	0.3159
226.9543	0.3114
227.1705	0.3248
227.3867	0.3229
227.6029	0.3194
227.8191	0.3403
228.0352	0.3447
228.2513	0.3539
228.4675	0.3339
228.6836	0.3378
228.8997	0.3331
229.1158	0.3573
229.3319	0.3597
229.548	0.354
229.764	0.344
229.9801	0.3758
230.1961	0.363
230.4121	0.3708
230.6282	0.3839
230.8442	0.3853
231.0602	0.3787
231.2761	0.3715
231.4921	0.3874
231.7081	0.3892
231.924	0.3913
232.14	0.4003
232.3559	0.4071
232.5718	0.4103
232.7877	0.419
233.0036	0.4148
233.2195	0.4073
233.4353	0.4184
233.6512	0.4161
233.867	0.4109
234.0829	0.4193
234.2987	0.42
234.5145	0.4363
234.7303	0.4275
234.9461	0.4387
235.1619	0.4458
235.3776	0.4312
235.5934	0.439
235.8091	0.4594
236.0249	0.4396
236.2406	0.4449
236.4563	0.4402
236.672	0.4439
236.8877	0.4583
237.1034	0.4486
237.319	0.4557
237.5347	0.4516
237.7503	0.4403
237.966	0.4632
238.1816	0.4579
238.3972	0.4509
238.6128	0.4703
238.8284	0.4637
239.0439	0.467
239.2595	0.4536
239.475	0.4675
239.6906	0.455
239.9061	0.4567
240.1216	0.4687
240.3371	0.4635
240.5526	0.4573
240.7681	0.4602
240.9836	0.4492
241.199	0.4602
241.4145	0.4449
241.6299	0.453
241.8453	0.4364
242.0607	0.436
242.2761	0.4312
242.4915	0.4321
242.7069	0.4174
242.9223	0.4257
243.1376	0.4133
243.353	0.3998
243.5683	0.3957
243.7836	0.3941
243.9989	0.3771
244.2142	0.3837
244.4295	0.3798
244.6448	0.3734
244.86	0.3552
245.0753	0.3406
245.2905	0.3465
245.5057	0.3381
245.721	0.3293
245.9362	0.3351
246.1514	0.3191
246.3665	0.305
246.5817	0.3014
246.7969	0.3071
247.012	0.2974
247.2271	0.2914
247.4423	0.2908
247.6574	0.288
247.8725	0.2738
248.0876	0.271
248.3026	0.2656
248.5177	0.2521
248.7328	0.2574
248.9478	0.2504
249.1628	0.2459
249.3779	0.2473
249.5929	0.2413
249.8079	0.2347
250.0228	0.2329
250.2378	0.235
250.4528	0.2292
250.6677	0.2224
250.8827	0.2181
251.0976	0.2185
251.3125	0.2147
251.5274	0.2124
251.7423	0.2104
251.9572	0.2113
252.172	0.2013
252.3869	0.2066
252.6017	0.2066
252.8166	0.2038
253.0314	0.1932
253.2462	0.1985
253.461	0.1964
253.6758	0.1965
253.8906	0.197
254.1053	0.1925
254.3201	0.1892
254.5348	0.1839
254.7496	0.1879
254.9643	0.1913
255.179	0.1865
255.3937	0.191
255.6083	0.1891
255.823	0.1887
256.0377	0.1818
256.2523	0.186
256.467	0.1853
256.6816	0.1795
256.8962	0.1796
257.1108	0.1877
257.3254	0.1803
257.54	0.1799
257.7545	0.1773
257.9691	0.1832
258.1836	0.1732
258.3981	0.1799
258.6127	0.173
258.8272	0.1842
259.0417	0.1799
259.2561	0.1783
259.4706	0.1755
259.6851	0.1701
259.8995	0.1784
260.114	0.1785
260.3284	0.1766
260.5428	0.1799
260.7572	0.1714
260.9716	0.1818
261.186	0.1709
261.4003	0.1745
261.6147	0.1755
261.829	0.1804
262.0433	0.1822
262.2577	0.1747
262.472	0.1744
262.6863	0.1839
262.9005	0.172
263.1148	0.1774
263.3291	0.1739
263.5433	0.1771
263.7576	0.1801
263.9718	0.1785
264.186	0.1819
264.4002	0.1844
264.6144	0.1819
264.8286	0.183
265.0427	0.187
265.2569	0.1879
265.471	0.1861
265.6851	0.1821
265.8993	0.1798
266.1134	0.1831
266.3275	0.181
266.5415	0.183
266.7556	0.1831
266.9697	0.1909
267.1837	0.1795
267.3978	0.187
267.6118	0.1779
267.8258	0.183
268.0398	0.1861
268.2538	0.1823
268.4677	0.1783
268.6817	0.1823
268.8957	0.172
269.1096	0.1735
269.3235	0.1806
269.5374	0.1794
269.7514	0.176
269.9652	0.1792
270.1791	0.1705
270.393	0.1806
270.6068	0.1818
270.8207	0.1757
271.0345	0.1786
271.2483	0.1701
271.4622	0.1778
271.676	0.1758
271.8897	0.1747
272.1035	0.1829
272.3173	0.1732
272.531	0.1708
272.7448	0.1803
272.9585	0.168
273.1722	0.1761
273.3859	0.1777
273.5996	0.1777
273.8133	0.1793
274.0269	0.1712
274.2406	0.1776
274.4542	0.1796
274.6679	0.1777
274.8815	0.1809
275.0951	0.1789
275.3087	0.1771
275.5223	0.1765
275.7358	0.1813
275.9494	0.1781
276.1629	0.1821
276.3765	0.1778
276.59	0.1813
276.8035	0.18
277.017	0.1868
277.2305	0.1804
277.444	0.1831
277.6574	0.1828
277.8709	0.1909
278.0843	0.178
278.2978	0.1873
278.5112	0.1835
278.7246	0.18
278.938	0.1828
279.1513	0.1826
279.3647	0.1893
279.5781	0.1816
279.7914	0.1823
280.0047	0.1884
280.2181	0.1836
280.4314	0.1824
280.6447	0.1921
280.8579	0.1781
281.0712	0.1864
281.2845	0.1822
281.4977	0.1865
281.711	0.1884
281.9242	0.1806
282.1374	0.1855
282.3506	0.1854
282.5638	0.184
282.7769	0.182
282.9901	0.1877
283.2033	0.1884
283.4164	0.1821
283.6295	0.1758
283.8426	0.1846
284.0557	0.1826
284.2688	0.1874
284.4819	0.1814
284.695	0.1872
284.908	0.1826
285.1211	0.1898
285.3341	0.1798
285.5471	0.1866
285.7601	0.1849
285.9731	0.186
286.1861	0.1901
286.3991	0.1863
286.612	0.1806
286.825	0.191
287.0379	0.1856
287.2508	0.1923
287.4637	0.1866
287.6766	0.1878
287.8895	0.1868
288.1024	0.192
288.3152	0.1857
288.5281	0.185
288.7409	0.1871
288.9538	0.1867
289.1666	0.1889
289.3794	0.1889
289.5922	0.1869
289.8049	0.1831
290.0177	0.191
290.2304	0.1888
290.4432	0.1963
290.6559	0.1925
290.8686	0.1873
291.0813	0.1916
291.294	0.1895
291.5067	0.1872
291.7194	0.1884
291.932	0.181
292.1447	0.1896
292.3573	0.1922
292.5699	0.1893
292.7825	0.1879
292.9951	0.19
293.2077	0.1931
293.4203	0.1899
293.6328	0.1897
293.8454	0.1916
294.0579	0.1888
294.2704	0.1931
294.4829	0.1823
294.6954	0.1905
294.9079	0.1895
295.1204	0.1858
295.3328	0.1983
295.5453	0.1916
295.7577	0.1921
295.9701	0.1896
296.1825	0.1942
296.3949	0.186
296.6073	0.185
296.8197	0.1921
297.0321	0.1915
297.2444	0.1874
297.4567	0.1933
297.6691	0.1874
297.8814	0.1874
298.0937	0.1891
298.306	0.1823
298.5182	0.1944
298.7305	0.1884
298.9428	0.1879
299.155	0.189
299.3672	0.1868
299.5794	0.1901
299.7916	0.1887
300.0038	0.1934
300.216	0.1823
300.4282	0.1871
300.6403	0.194
300.8525	0.1868
301.0646	0.1903
301.2767	0.1908
301.4888	0.1939
301.7009	0.1866
301.913	0.193
302.125	0.1939
302.3371	0.1932
302.5491	0.1916
302.7612	0.2009
302.9732	0.1951
303.1852	0.1906
303.3972	0.1904
303.6092	0.1895
303.8211	0.1881
304.0331	0.1899
304.245	0.1888
304.457	0.1842
304.6689	0.1888
304.8808	0.1845
305.0927	0.188
305.3046	0.1857
305.5164	0.1817
305.7283	0.1843
305.9401	0.1734
306.152	0.1802
306.3638	0.1817
306.5756	0.1785
306.7874	0.1763
306.9992	0.1797
307.2109	0.1699
307.4227	0.1678
307.6344	0.1772
307.8462	0.1649
308.0579	0.1723
308.2696	0.1694
308.4813	0.1704
308.693	0.1661
308.9046	0.1656
309.1163	0.1603
309.328	0.1593
309.5396	0.1551
309.7512	0.1555
309.9628	0.1542
310.1744	0.151
310.386	0.1535
310.5976	0.1466
310.8091	0.1486
311.0207	0.1521
311.2322	0.1423
311.4437	0.1477
311.6552	0.1467
311.8667	0.1415
312.0782	0.1442
312.2897	0.1404
312.5012	0.1367
312.7126	0.1312
312.924	0.1396
313.1355	0.1381
313.3469	0.135
313.5583	0.1402
313.7696	0.1288
313.981	0.1389
314.1924	0.1307
314.4037	0.1312
314.6151	0.1313
314.8264	0.1367
315.0377	0.1379
315.249	0.1327
315.4603	0.127
315.6716	0.1289
315.8828	0.1272
316.0941	0.1342
316.3053	0.1264
316.5165	0.1327
316.7277	0.1215
316.9389	0.1298
317.1501	0.1281
317.3613	0.1284
317.5724	0.1245
317.7836	0.119
317.9947	0.1258
318.2058	0.1279
318.417	0.1256
318.6281	0.1267
318.8391	0.1299
319.0502	0.1279
319.2613	0.1247
319.4723	0.1222
319.6834	0.1314
319.8944	0.1263
320.1054	0.1303
320.3164	0.124
320.5274	0.1215
320.7383	0.1249
320.9493	0.1242
321.1602	0.1227
321.3712	0.1244
321.5821	0.1265
321.793	0.131
322.0039	0.1269
322.2148	0.129
322.4257	0.1196
322.6365	0.1248
322.8474	0.1307
323.0582	0.1254
323.269	0.1336
323.4798	0.1279
323.6906	0.1171
323.9014	0.1257
324.1122	0.1272
324.3229	0.1295
324.5337	0.1311
324.7444	0.1292
324.9551	0.13
325.1658	0.1318
325.3765	0.1317
325.5872	0.1338
325.7979	0.1295
326.0085	0.128
326.2192	0.1285
326.4298	0.1262
326.6404	0.1339
326.851	0.1277
327.0616	0.13
327.2722	0.1286
327.4828	0.1308
327.6933	0.1354
327.9039	0.1331
328.1144	0.1326
328.3249	0.1394
328.5354	0.1323
328.7459	0.1319
328.9564	0.1345
329.1669	0.1335
329.3773	0.1372
329.5878	0.1319
329.7982	0.1352
330.0086	0.1425
330.219	0.1309
330.4294	0.1343
330.6398	0.1388
330.8502	0.146
331.0605	0.1369
331.2708	0.1359
331.4812	0.1382
331.6915	0.1381
331.9018	0.1371
332.1121	0.1478
332.3224	0.1375
332.5326	0.1351
332.7429	0.1389
332.9531	0.1434
333.1633	0.1356
333.3735	0.1317
333.5837	0.1354
333.7939	0.1408
334.0041	0.1517
334.2143	0.1359
334.4244	0.146
334.6346	0.1387
334.8447	0.1344
335.0548	0.136
335.2649	0.1427
335.475	0.1419
335.685	0.1356
335.8951	0.134
336.1051	0.1463
336.3152	0.1442
336.5252	0.1388
336.7352	0.1405
336.9452	0.1432
337.1552	0.1459
337.3652	0.1367
337.5751	0.1386
337.7851	0.1418
337.995	0.1402
338.2049	0.1393
338.4148	0.1444
338.6247	0.1445
338.8346	0.1413
339.0445	0.1414
339.2543	0.1434
339.4642	0.1414
339.674	0.1418
339.8838	0.1405
340.0936	0.1467
340.3034	0.1429
340.5132	0.1418
340.7229	0.1424
340.9327	0.15
341.1424	0.1405
341.3522	0.1431
341.5619	0.152
341.7716	0.1512
341.9813	0.1557
342.1909	0.1537
342.4006	0.1502
342.6102	0.1496
342.8199	0.1488
343.0295	0.1483
343.2391	0.1547
343.4487	0.1557
343.6583	0.1611
343.8679	0.1543
344.0774	0.1561
344.287	0.154
344.4965	0.156
344.706	0.1571
344.9155	0.1557
345.125	0.1608
345.3345	0.1669
345.544	0.1525
345.7534	0.1565
345.9629	0.1596
346.1723	0.1665
346.3817	0.163
346.5911	0.163
346.8005	0.1683
347.0099	0.1661
347.2193	0.1696
347.4286	0.1721
347.638	0.1696
347.8473	0.173
348.0566	0.1681
348.2659	0.1672
348.4752	0.1742
348.6845	0.1674
348.8937	0.1722
349.103	0.1717
349.3122	0.1742
349.5214	0.1749
349.7306	0.1799
349.9398	0.1745
350.149	0.1701
350.3582	0.1787
350.5674	0.1676
350.7765	0.1712
350.9856	0.1695
351.1948	0.1754
351.4039	0.1785
351.613	0.176
351.822	0.183
352.0311	0.1783
352.2402	0.1812
352.4492	0.1747
352.6582	0.1892
352.8672	0.1778
353.0762	0.1826
353.2852	0.1865
353.4942	0.1833
353.7032	0.1821
353.9121	0.1824
354.1211	0.1819
354.33	0.182
354.5389	0.1765
354.7478	0.1872
354.9567	0.1854
355.1655	0.1892
355.3744	0.1767
355.5833	0.1884
355.7921	0.1947
356.0009	0.1859
356.2097	0.1809
356.4185	0.1856
356.6273	0.188
356.8361	0.1849
357.0448	0.1919
357.2536	0.1978
357.4623	0.1872
357.671	0.1919
357.8797	0.1928
358.0884	0.1907
358.2971	0.1946
358.5057	0.194
358.7144	0.1905
358.923	0.1982
359.1316	0.1975
359.3402	0.1933
359.5488	0.1932
359.7574	0.2075
359.966	0.1974
360.1746	0.195
360.3831	0.2056
360.5916	0.1982
360.8002	0.2113
361.0087	0.206
361.2172	0.2045
361.4256	0.2015
361.6341	0.2056
361.8426	0.1989
362.051	0.2061
362.2594	0.1998
362.4678	0.2115
362.6762	0.2138
362.8846	0.2123
363.093	0.2155
363.3014	0.2197
363.5097	0.2073
363.718	0.227
363.9264	0.2177
364.1347	0.2204
364.343	0.2184
364.5513	0.2213
364.7595	0.2164
364.9678	0.215
365.176	0.2167
365.3842	0.2237
365.5925	0.2224
365.8007	0.222
366.0089	0.228
366.217	0.2263
366.4252	0.2256
366.6333	0.225
366.8415	0.2319
367.0496	0.2282
367.2577	0.2321
367.4658	0.2246
367.6739	0.2301
367.882	0.2289
368.09	0.227
368.2981	0.2436
368.5061	0.2436
368.7141	0.2325
368.9221	0.2438
369.1301	0.2387
369.3381	0.2389
369.5461	0.242
369.754	0.2379
369.962	0.2419
370.1699	0.2512
370.3778	0.2528
370.5857	0.2407
370.7936	0.2414
371.0015	0.2485
371.2093	0.235
371.4172	0.2478
371.625	0.2464
371.8328	0.2438
372.0406	0.253
372.2484	0.2531
372.4562	0.258
372.664	0.2493
372.8717	0.2504
373.0795	0.2545
373.2872	0.2564
373.4949	0.2591
373.7026	0.2484
373.9103	0.257
374.118	0.2608
374.3256	0.2685
374.5333	0.2644
374.7409	0.2581
374.9485	0.2626
375.1561	0.2606
375.3637	0.2567
375.5713	0.2616
375.7789	0.2603
375.9864	0.256
376.194	0.2662
376.4015	0.2672
376.609	0.2652
376.8165	0.2745
377.024	0.266
377.2315	0.2739
377.4389	0.2622
377.6464	0.2742
377.8538	0.2698
378.0612	0.2792
378.2686	0.2655
378.476	0.279
378.6834	0.2714
378.8908	0.285
379.0981	0.2706
379.3055	0.2789
379.5128	0.277
379.7201	0.2783
379.9274	0.2831
380.1347	0.2822
380.342	0.2833
380.5492	0.2819
380.7565	0.2783
380.9637	0.2789
381.1709	0.2835
381.3781	0.2859
381.5853	0.2822
381.7925	0.2847
381.9997	0.2865
382.2068	0.2748
382.4139	0.2907
382.6211	0.2882
382.8282	0.2974
383.0353	0.2952
383.2424	0.2794
383.4494	0.2916
383.6565	0.2902
383.8635	0.2865
384.0706	0.2915
384.2776	0.2914
384.4846	0.2936
384.6916	0.2928
384.8986	0.285
385.1055	0.2983
385.3125	0.2982
385.5194	0.2988
385.7263	0.2914
385.9333	0.2917
386.1402	0.2942
386.347	0.3037
386.5539	0.3044
386.7608	0.2929
386.9676	0.2906
387.1744	0.2935
387.3813	0.2913
387.5881	0.2764
387.7948	0.305
388.0016	0.3018
388.2084	0.2901
388.4151	0.2936
388.6219	0.2768
388.8286	0.2894
389.0353	0.2943
389.242	0.2951
389.4487	0.2866
389.6553	0.2756
389.862	0.2733
390.0686	0.2899
390.2753	0.281
390.4819	0.2875
390.6885	0.2847
390.8951	0.2838
391.1016	0.2863
391.3082	0.283
391.5147	0.2776
391.7213	0.2803
391.9278	0.2716
392.1343	0.284
392.3408	0.2798
392.5473	0.2736
392.7537	0.2716
392.9602	0.2785
393.1666	0.2768
393.373	0.2632
393.5794	0.2694
393.7858	0.2691
393.9922	0.2686
394.1986	0.2644
394.4049	0.269
394.6113	0.2647
394.8176	0.2713
395.0239	0.2559
395.2302	0.2636
395.4365	0.2593
395.6428	0.262
395.8491	0.2516
396.0553	0.2523
396.2615	0.2647
396.4678	0.262
396.674	0.2622
396.8802	0.2479
397.0863	0.2555
397.2925	0.259
397.4987	0.2576
397.7048	0.2578
397.9109	0.2495
398.117	0.2511
398.3231	0.2505
398.5292	0.2449
398.7353	0.2447
398.9413	0.2469
399.1474	0.2523
399.3534	0.2526
399.5594	0.2533
399.7654	0.2462
399.9714	0.2526
400.1774	0.2482
400.3833	0.2515
400.5893	0.2487
400.7952	0.2493
401.0011	0.2417
401.207	0.2445
401.4129	0.2574
401.6188	0.2491
401.8247	0.2554
402.0305	0.2425
402.2364	0.2476
402.4422	0.2466
402.648	0.2393
402.8538	0.2541
403.0596	0.2428
403.2654	0.2509
403.4711	0.2408
403.6768	0.2468
403.8826	0.249
404.0883	0.2472
404.294	0.2498
404.4997	0.2431
404.7054	0.2488
404.911	0.2529
405.1167	0.2452
405.3223	0.2443
405.5279	0.2522
405.7335	0.2429
405.9391	0.2309
406.1447	0.2538
406.3502	0.2364
406.5558	0.2483
406.7613	0.243
406.9668	0.2413
407.1724	0.2511
407.3778	0.2509
407.5833	0.2319
407.7888	0.2549
407.9942	0.2453
408.1997	0.2457
408.4051	0.2578
408.6105	0.2466
408.8159	0.244
409.0213	0.2496
409.2267	0.2487
409.432	0.2371
409.6374	0.246
409.8427	0.2454
410.048	0.2522
410.2533	0.2439
410.4586	0.2307
410.6639	0.2447
410.8691	0.2397
411.0744	0.2424
411.2796	0.2421
411.4848	0.2482
411.69	0.2353
411.8952	0.2409
412.1004	0.2452
412.3056	0.2408
412.5107	0.241
412.7158	0.2501
412.921	0.2495
413.1261	0.2367
413.3312	0.246
413.5362	0.2531
413.7413	0.2456
413.9464	0.2357
414.1514	0.2405
414.3564	0.2419
414.5614	0.2429
414.7664	0.2459
414.9714	0.2397
415.1764	0.2477
415.3813	0.2435
415.5863	0.2488
415.7912	0.2361
415.9961	0.2415
416.201	0.2524
416.4059	0.2397
416.6108	0.233
416.8156	0.2337
417.0205	0.2385
417.2253	0.2425
417.4301	0.2474
417.6349	0.2336
417.8397	0.2367
418.0445	0.2349
418.2492	0.2289
418.454	0.2349
418.6587	0.2475
418.8634	0.247
419.0681	0.2382
419.2728	0.2359
419.4775	0.2446
419.6822	0.2252
419.8868	0.2301
420.0915	0.2272
420.2961	0.2339
420.5007	0.228
420.7053	0.2245
420.9099	0.2295
421.1144	0.2304
421.319	0.2244
421.5235	0.222
421.728	0.2313
421.9325	0.2229
422.137	0.2307
422.3415	0.2245
422.546	0.2069
422.7504	0.2197
422.9549	0.2335
423.1593	0.2088
423.3637	0.2168
423.5681	0.2287
423.7725	0.2165
423.9769	0.2206
424.1812	0.2133
424.3856	0.2056
424.5899	0.2102
424.7942	0.2071
424.9985	0.2098
425.2028	0.2104
425.4071	0.2176
425.6113	0.2113
425.8156	0.1986
426.0198	0.216
426.224	0.2101
426.4282	0.2021
426.6324	0.1988
426.8366	0.2106
427.0407	0.2019
427.2449	0.2044
427.449	0.1966
427.6531	0.2127
427.8572	0.201
428.0613	0.1991
428.2654	0.1999
428.4694	0.1858
428.6735	0.1933
428.8775	0.1918
429.0815	0.1819
429.2855	0.1908
429.4895	0.1879
429.6935	0.197
429.8975	0.1802
430.1014	0.1875
430.3053	0.1797
430.5093	0.1764
430.7132	0.1734
430.9171	0.1778
431.1209	0.1761
431.3248	0.1774
431.5286	0.1668
431.7325	0.1861
431.9363	0.1718
432.1401	0.171
432.3439	0.1691
432.5477	0.1647
432.7514	0.1637
432.9552	0.1592
433.1589	0.1579
433.3627	0.1616
433.5664	0.1561
433.7701	0.1567
433.9737	0.1639
434.1774	0.1618
434.3811	0.1519
434.5847	0.1458
434.7883	0.1472
434.9919	0.1417
435.1955	0.1422
435.3991	0.1422
435.6027	0.1428
435.8062	0.1634
436.0098	0.1362
436.2133	0.1336
436.4168	0.1315
436.6203	0.1353
436.8238	0.1373
437.0272	0.1344
437.2307	0.1298
437.4341	0.1231
437.6375	0.1218
437.841	0.1177
438.0443	0.13
438.2477	0.1235
438.4511	0.1186
438.6545	0.1198
438.8578	0.1193
439.0611	0.1219
439.2644	0.122
439.4677	0.1129
439.671	0.1079
439.8743	0.1102
440.0775	0.1032
440.2808	0.1037
440.484	0.1029
440.6872	0.1022
440.8904	0.0924
441.0936	0.1023
441.2967	0.0933
441.4999	0.0986
441.703	0.0982
441.9062	0.0977
442.1093	0.1042
442.3124	0.0847
442.5155	0.0903
442.7185	0.0823
442.9216	0.0902
443.1246	0.0864
443.3276	0.0795
443.5307	0.0745
443.7337	0.0836
443.9366	0.0826
444.1396	0.0751
444.3426	0.0842
444.5455	0.0752
444.7484	0.0731
444.9513	0.0732
445.1542	0.071
445.3571	0.0764
445.56	0.063
445.7628	0.0629
445.9657	0.071
446.1685	0.0718
446.3713	0.0658
446.5741	0.0715
446.7769	0.063
446.9797	0.0704
447.1824	0.0593
447.3852	0.0442
447.5879	0.0539
447.7906	0.0503
447.9933	0.0548
448.196	0.055
448.3986	0.0558
448.6013	0.0471
448.8039	0.0544
449.0066	0.0629
449.2092	0.0539
449.4118	0.0521
449.6143	0.0605
449.8169	0.0484
450.0195	0.0477
450.222	0.0549
450.4245	0.0465
450.627	0.0481
450.8295	0.0369
451.032	0.0415
451.2345	0.0325
451.4369	0.0453
451.6394	0.0433
451.8418	0.0455
452.0442	0.0421
452.2466	0.0363
452.449	0.0467
452.6513	0.0324
452.8537	0.034
453.056	0.0325
453.2583	0.0326
453.4607	0.0292
453.663	0.034
453.8652	0.0283
454.0675	0.0397
454.2697	0.0291
454.472	0.0278
454.6742	0.0389
454.8764	0.0326
455.0786	0.0251
455.2808	0.0254
455.4829	0.0218
455.6851	0.0338
455.8872	0.0195
456.0893	0.0329
456.2915	0.033
456.4935	0.0349
456.6956	0.0217
456.8977	0.0212
457.0997	0.0235
457.3018	0.0194
457.5038	0.0306
457.7058	0.0245
457.9078	0.0277
458.1098	0.0233
458.3117	0.0311
458.5137	0.018
458.7156	0.0196
458.9175	0.0209
459.1194	0.0268
459.3213	0.0158
459.5232	0.0191
459.725	0.0211
459.9269	0.0179
460.1287	0.0155
460.3305	0.0234
460.5323	0.0191
460.7341	0.019
460.9359	0.0094
461.1376	0.0231
461.3394	0.0199
461.5411	0.0157
461.7428	0.022
461.9445	0.0136
462.1462	0.0177
462.3479	0.0223
462.5495	0.0189
462.7512	0.0239
462.9528	0.013
463.1544	0.0151
463.356	0.0053
463.5576	0.0176
463.7592	0.016
463.9607	0.0162
464.1623	0.0215
464.3638	0.0122
464.5653	0.0169
464.7668	0.0227
464.9683	0.0123
465.1697	0.0142
465.3712	0.0073
465.5726	0.01
465.7741	0.0188
465.9755	0.0184
466.1769	0.0069
466.3782	0.0052
466.5796	0.0176
466.7809	0.0127
466.9823	0.0111
467.1836	0.0061
467.3849	0.0106
467.5862	0.0036
467.7875	0.0079
467.9887	0.0059
468.19	0.0068
468.3912	0.0193
468.5924	0.0025
468.7936	0.0161
468.9948	-0.0016
469.196	0.0111
469.3972	0.0066
469.5983	0.0156
469.7994	0.0084
470.0006	0.0117
470.2017	0.0063
470.4027	0.0234
470.6038	0.0099
470.8049	0.01
471.0059	0.0048
471.2069	0.0095
471.408	0.0137
471.6089	0.0114
471.8099	0.0081
472.0109	0.007
472.2119	0.0145
472.4128	0.0116
472.6137	0.007
472.8146	0.0217
473.0155	0.0117
473.2164	0.0116
473.4173	0.0014
473.6181	-0.0012
473.819	0.008
474.0198	0.004
474.2206	-0.0013
474.4214	0.0166
474.6222	-0.0026
474.8229	0.0082
475.0237	0.0105
475.2244	0.0094
475.4251	0.0075
475.6258	-0.0039
475.8265	0.0019
476.0272	0.0027
476.2278	0.0115
476.4285	0.0088
476.6291	0.0077
476.8297	0.0069
477.0303	0.0025
477.2309	0.0062
477.4315	0.0097
477.632	-0.0028
477.8326	0.0079
478.0331	0.0082
478.2336	0.0008
478.4341	0.0078
478.6346	0.0021
478.8351	-0.0007
479.0355	0.014
479.236	0.0108
479.4364	0.0087
479.6368	0.0104
479.8372	0.0066
480.0376	0.0082
480.2379	0.0035
480.4383	0.0115
480.6386	-0.002
480.8389	0.0032
481.0392	0.0078
481.2395	0.0086
481.4398	0.0104
481.6401	0.0094
481.8403	0.004
482.0405	0.0049
482.2408	0.0082
482.441	0.0124
482.6411	0.0157
482.8413	0.006
483.0415	0.0147
483.2416	0.0007
483.4417	0.0066
483.6419	-0.0034
483.8419	0.0089
484.042	0.003
484.2421	0.0017
484.4422	0.0075
484.6422	0.0023
484.8422	0.0056
485.0422	0.0022
485.2422	0.001
485.4422	0.0076
485.6422	0.0039
485.8421	0.0023
486.042	0.0099
486.242	-0.0026
486.4419	0.0061
486.6417	0.0047
486.8416	0.0037
487.0415	0.0026
487.2413	0.0006
487.4411	0.0074
487.641	0.0086
487.8408	0.0133
488.0405	0.0078
488.2403	0.0024
488.4401	0.0103
488.6398	0.0115
488.8395	0.005
489.0392	0.0081
489.2389	0.011
489.4386	0.0029
489.6383	0.0109
489.8379	-0.0067
490.0376	-0.0013
490.2372	-0.0049
490.4368	-0.0016
490.6364	0.007
490.836	0.0048
491.0355	0.0008
491.2351	0.0037
491.4346	0.0095
491.6341	0.0022
491.8336	0.0059
492.0331	0.0061
492.2326	-0.0008
492.432	0.0123
492.6315	0.007
492.8309	0.0073
493.0303	0.0072
493.2297	0.0029
493.4291	0.0078
493.6284	0.0151
493.8278	0.0066
494.0271	0.0099
494.2264	0.0037
494.4257	0.011
494.625	0.0063
494.8243	-0.0014
495.0236	0.0081
495.2228	0.0062
495.422	0.0113
495.6213	0.0061
495.8205	0.0017
496.0196	0.0081
496.2188	0.0083
496.418	0.0021
496.6171	0.0028
496.8162	0.002
497.0153	0.0067
497.2144	0.0002
497.4135	0.0014
497.6126	0.007
497.8116	0.0019
498.0107	0.009
498.2097	0.0051
498.4087	0.0038
498.6077	-0.0055
498.8067	-0.0014
499.0056	-0.0011
499.2046	0.0128
499.4035	0.0083
499.6024	-0.0111
499.8013	0.0088
500.0002	0.0026
500.199	0.0165
500.3979	-0.0028
500.5967	0.0084
500.7956	0.0076
500.9944	0.0127
501.1932	0.0135
501.3919	0.0139
501.5907	0.0143
501.7895	0.0056
501.9882	-0.0004
502.1869	0.0095
502.3856	-0.0005
502.5843	0.0076
502.783	0.0017
502.9816	0.0138
503.1803	0.008
503.3789	0.0064
503.5775	0.0072
503.7761	-0.003
503.9747	0.0097
504.1732	0.0014
504.3718	0.0175
504.5703	0.0045
504.7689	-0.0006
504.9674	0.0059
505.1658	0.0083
505.3643	0.0091
505.5628	0.0046
505.7612	0.0104
505.9597	-0.0037
506.1581	0.0003
506.3565	0.0085
506.5549	0.0011
506.7532	-0.0019
506.9516	0.0009
507.1499	0.005
507.3482	0.0084
507.5465	0.0128
507.7448	0.0138
507.9431	0.0065
508.1414	0.0003
508.3396	0.0053
508.5379	0.0039
508.7361	0.0105
508.9343	0.008
509.1325	0.0117
509.3306	0.0047
509.5288	-0.004
509.7269	0.0062
509.9251	0.009
510.1232	0.0055
510.3213	0.0176
510.5193	0.0094
510.7174	0.0003
510.9154	0.0166
511.1135	0.0017
511.3115	0.0085
511.5095	0.0075
511.7075	-0.0013
511.9055	0.0016
512.1034	-0.0025
512.3014	0.006
512.4993	0.01
512.6972	-0.0009
512.8951	0.015
513.093	0.0055
513.2908	0.0139
513.4887	0.0017
513.6865	0.0156
513.8844	0.0111
514.0822	-0.0049
514.2799	-0.0025
514.4777	0.002
514.6755	0.0067
514.8732	0.0044
515.0709	0.0091
515.2687	-0.0001
515.4664	0.0099
515.664	0.0101
515.8617	0.0056
516.0594	0.0114
516.257	0.0058
516.4546	0.0199
516.6522	0.0051
516.8498	0.0053
517.0474	0.0026
517.2449	-0.0008
517.4425	0.0062
517.64	0.008
517.8375	0.0094
518.035	-0.0043
518.2325	-0.0003
518.43	0.0028
518.6274	0.0005
518.8249	-0
519.0223	0.0157
519.2197	0.0004
519.4171	0.0064
519.6145	0.0016
519.8118	-0.003
520.0092	-0.004
520.2065	0.0141
520.4038	0.0017
520.6011	0.0039
520.7984	0.0099
520.9956	0.0133
521.1929	0.0089
521.3901	0.0195
521.5874	0.0066
521.7846	0.0075
521.9818	-0.0025
522.1789	-0.001
522.3761	0.0153
522.5732	0.0076
522.7704	-0.0082
522.9675	-0.01
523.1646	-0.0024
523.3617	0.0019
523.5587	0.0096
523.7558	-0.0004
523.9528	0.0124
524.1498	-0.0031
524.3468	0.006
524.5438	0.0162
524.7408	-0.0038
524.9378	0.0146
525.1347	0.0061
525.3316	0.0093
525.5285	0.0043
525.7254	0.0069
525.9223	0.0165
526.1192	0.0053
526.316	0.0084
526.5129	-0.0015
526.7097	0.0049
526.9065	0.0086
527.1033	0.01
527.3	0.0103
527.4968	0.0061
527.6935	-0.0043
527.8903	0.0041
528.087	0.0027
528.2837	0.0116
528.4804	-0.0026
528.677	-0.0011
528.8737	0.0072
529.0703	0.0042
529.2669	0.0073
529.4635	0.0037
529.6601	0.0021
529.8567	0.0006
530.0532	0.0062
530.2498	0.0065
530.4463	0.0019
530.6428	0.0127
530.8393	0.0121
531.0358	0.0032
531.2322	-0.0021
531.4287	0.0066
531.6251	-0.0037
531.8215	0.0029
532.0179	0.0073
532.2143	0.0069
532.4107	0.007
532.607	-0.0005
532.8034	-0.0004
532.9997	0.0012
533.196	0.0023
533.3923	0.0045
533.5886	0.012
533.7848	0.0011
533.9811	0.0001
534.1773	0.0017
534.3735	0.0073
534.5697	0.0053
534.7659	0.0054
534.9621	0.008
535.1582	0.0061
535.3544	0.0033
535.5505	0.003
535.7466	0.0075
535.9427	-0.0021
536.1387	-0.0042
536.3348	0.0123
536.5308	0.0015
536.7269	0.0054
536.9229	-0.0027
537.1189	0.0028
537.3148	0.0033
537.5108	0.0006
537.7068	0.0136
537.9027	0.0022
538.0986	0.0167
538.2945	0.0023
538.4904	-0.0024
538.6863	0.003
538.8821	0.0051
539.078	0.0051
539.2738	0.0106
539.4696	0.0005
539.6654	0.0044
539.8611	0.0096
540.0569	0.004
540.2526	0.0108
540.4484	-0.0102
540.6441	-0.0012
540.8398	0.0119
541.0355	-0.0004
541.2311	0.0048
541.4268	0.0118
541.6224	0.01
541.818	0.0166
542.0136	0.0077
542.2092	0.0147
542.4048	0.0091
542.6003	0.0024
542.7959	0.0071
542.9914	0.0083
543.1869	0.003
543.3824	0.0077
543.5779	0.0137
543.7734	0.0226
543.9688	0.0087
544.1642	0.0054
544.3596	0.0098
544.555	0.0075
544.7504	0.0204
544.9458	0.0019
545.1411	0.0101
545.3365	0.0136
545.5318	0.0072
545.7271	0.0102
545.9224	0.001
546.1177	0.0087
546.3129	0.0048
546.5081	0.0096
546.7034	0.0102
546.8986	-0.0038
547.0938	0.0061
547.289	0.0076
547.4841	0.0064
547.6793	0.0054
547.8744	0.0159
548.0695	0.0042
548.2646	0.001
548.4597	0.0016
548.6548	0.0151
548.8498	0.0049
549.0448	-0.0029
549.2399	0.0141
549.4349	0.0076
549.6298	0.0152
549.8248	-0.0107
550.0198	0.0151
550.2147	0.007
550.4096	-0.003
550.6045	0.0034
550.7994	0.0102
550.9943	0.012
551.1892	-0.0021
551.384	0.0197
551.5788	0.0049
551.7737	0.0061
551.9685	0.0017
552.1632	-0.0009
552.358	0.0081
552.5528	0.0098
552.7475	0.0002
552.9422	0.0053
553.1369	0.0112
553.3316	0.0094
553.5263	0.0113
553.7209	0.0062
553.9156	0.0053
554.1102	0.0049
554.3048	-0
554.4994	0.0045
554.694	0.0037
554.8885	0.004
555.0831	0.0134
555.2776	0.0083
555.4721	0.0041
555.6666	0.0124
555.8611	0.0116
556.0555	0.0116
556.25	0.0023
556.4444	0.0068
556.6388	-0.0022
556.8332	0.0048
557.0276	0.0027
557.222	-0.0003
557.4163	0.0017
557.6107	-0
557.805	0.0009
557.9993	0.0138
558.1936	0.0014
558.3879	0.002
558.5821	-0.005
558.7764	0.0011
558.9706	0.0046
559.1648	0.0053
559.359	0.0075
559.5532	-0.0022
559.7473	0.0035
559.9415	-0.0001
560.1356	0.0176
560.3297	0.0015
560.5238	0.0113
560.7179	0.0045
560.9119	0.0052
561.106	-0.0063
561.3	0.0038
561.494	-0.0164
561.688	-0.0033
561.882	0.0063
562.076	0.0038
562.2699	0.0176
562.4639	0.0144
562.6578	-0.0015
562.8517	0.0028
563.0456	0.0091
563.2395	0.0109
563.4333	0.0069
563.6272	0.0076
563.821	0.0041
564.0148	-0.003
564.2086	0.0089
564.4024	0.0151
564.5961	0.0126
564.7899	0.0133
564.9836	0.0033
565.1773	0.0153
565.371	0.0053
565.5647	0.0063
565.7584	0.0196
565.952	0.0034
566.1456	0.0072
566.3393	0.0086
566.5329	-0.0035
566.7264	0.0119
566.92	0.0075
567.1136	0.0039
567.3071	-0.0029
567.5006	0.0115
567.6941	0.006
567.8876	0.0015
568.0811	0.0215
568.2745	-0.0037
568.468	0.008
568.6614	0.0076
568.8548	0.0169
569.0482	0.0063
569.2416	0.0046
569.4349	0.0015
569.6283	0.0061
569.8216	0.007
570.0149	0.0004
570.2082	0.0121
570.4015	0.0062
570.5947	0.0036
570.788	0.0078
570.9812	0.0046
571.1744	0.0074
571.3676	0.0064
571.5608	0.0029
571.754	0.0145
571.9471	0.0097
572.1402	0.0033
572.3333	0.0056
572.5264	0.004
572.7195	0.0013
572.9126	0.0041
573.1057	0.0037
573.2987	0.0007
573.4917	0.0021
573.6847	0.0024
573.8777	0.0083
574.0707	0.0085
574.2636	0.0063
574.4566	0.0054
574.6495	0.0034
574.8424	0.0097
575.0353	0.0086
575.2281	0.0089
575.421	-0.0007
575.6138	0.0043
575.8067	0.0059
575.9995	0.0031
576.1923	0.0084
576.385	0.0024
576.5778	0.0078
576.7706	0.006
576.9633	0.0053
577.156	-0.0017
577.3487	0.0021
577.5414	0.0019
577.734	0.0054
577.9267	0.0065
578.1193	0.0062
578.3119	0.0023
578.5045	0.0068
578.6971	0.005
578.8897	0.0029
579.0822	0.0058
579.2747	0.0087
579.4673	0.0043
579.6598	0.0055
579.8522	0.0052
580.0447	0.0101
580.2372	0.0092
580.4296	0.0097
580.622	0.0032
580.8144	0.0044
581.0068	0.0059
581.1992	0.0054
581.3915	0.0001
581.5839	0.0053
581.7762	0.0037
581.9685	0.0039
582.1608	0.0058
582.353	0.005
582.5453	0.0084
582.7375	0.0043
582.9298	0.0017
583.122	0.0041
583.3142	0.0047
583.5063	0.0053
583.6985	0.0014
583.8906	0.0059
584.0827	0.0054
584.2749	-0.0012
584.4669	0.0054
584.659	0.0066
584.8511	0.0101
585.0431	0.0079
585.2352	0.0042
585.4272	0.0038
585.6192	0.0067
585.8111	0.0034
586.0031	0.0053
586.195	0.0006
586.387	0.0036
586.5789	0.0105
586.7708	0.0071
586.9627	0.0049
587.1545	0.0052
587.3464	0.0062
587.5382	-0
587.73	0.0105
587.9218	0.0044
588.1136	-0.0008
588.3053	0.0016
588.4971	0.0034
588.6888	-0.0025
588.8805	0.0046
589.0722	0.013
589.2639	0.0023
589.4556	0.0048
589.6472	0.0138
589.8389	0.0026
590.0305	0.0021
590.2221	0.0058
590.4137	0.0009
590.6052	0.008
590.7968	0.0074
590.9883	0.0023
591.1798	0.0057
591.3713	0.005
591.5628	0.0076
591.7543	0.004
591.9458	0.0029
592.1372	0.0081
592.3286	0.0058
592.52	0.0046
592.7114	0.0054
592.9028	0.0102
593.0941	0.0009
593.2855	0.0069
593.4768	0.0117
593.6681	0.0115
593.8594	0.0065
594.0506	0.0014
594.2419	0.0026
594.4331	0.0061
594.6244	-0.001
594.8156	0.0042
595.0067	0.0005
595.1979	-0.0003
595.3891	0.0039
595.5802	0.008
595.7713	0.0061
595.9624	0.0086
596.1535	0.003
596.3446	0.001
596.5357	0.0032
596.7267	0.0052
596.9177	0.0027
597.1087	-0.0041
597.2997	0.0076
597.4907	-0.0032
597.6817	0.0081
597.8726	0.0055
598.0635	-0.0014
598.2544	0.0083
598.4453	0.004
598.6362	0.001
598.827	0.0058
599.0179	0.0061
599.2087	0.0045
599.3995	0.0103
599.5903	0.009
599.7811	0.0105
599.9718	0.0044
600.1626	0.0031
600.3533	-0.0005
600.544	0.0047
600.7347	0.0083
600.9254	0.0117
601.116	0.0072
601.3067	0.0058
601.4973	0.0061
601.6879	0.0044
601.8785	0.0103
602.0691	0.0043
602.2596	0.0056
602.4502	0.0054
602.6407	0.0046
602.8312	0.0014
603.0217	0.0054
603.2122	0.0036
603.4027	0.0092
603.5931	0.0032
603.7835	0.005
603.9739	0.0015
604.1643	0.0085
604.3547	0.0116
604.5451	0.0082
604.7354	0.0037
604.9257	0.0024
605.116	0.0002
605.3063	0.009
605.4966	0.0036
605.6869	0.0071
605.8771	0.007
606.0673	0.0081
606.2575	0.0049
606.4477	0.0126
606.6379	-0.0022
606.8281	0.0035
607.0182	0.0049
607.2083	0.0045
607.3985	0.0021
607.5885	0.0079
607.7786	0.0069
607.9687	0.0101
608.1587	0.0063
608.3488	0.005
608.5388	0.0034
608.7288	-0.0007
608.9187	0.0035
609.1087	0.0111
609.2986	0.0112
609.4886	0.0024
609.6785	0.0119
609.8684	-0.0021
610.0582	0.0071
610.2481	-0.0029
610.4379	0.0078
610.6278	0.0027
610.8176	0.0073
611.0074	0.0023
611.1971	0.0044
611.3869	0.0114
611.5766	-0.008
611.7664	0.0033
611.9561	0.0083
612.1458	0.0043
612.3354	0.014
612.5251	0.0104
612.7147	0.0063
612.9044	0.0032
613.094	0.0048
613.2836	0.0071
613.4731	0.0018
613.6627	0.0144
613.8522	0.0083
614.0417	0.0049
614.2313	0.0027
614.4207	0.0091
614.6102	0.012
614.7997	0.0134
614.9891	0.008
615.1785	0.0046
615.3679	0.0109
615.5573	0.0088
615.7467	-0.0026
615.9361	0.0049
616.1254	0.0018
616.3147	0.0016
616.504	0.002
616.6933	0.0018
616.8826	0.0074
617.0718	0.0108
617.2611	0.0009
617.4503	-0.0026
617.6395	0.0076
617.8287	0.0062
618.0179	0.0048
618.207	0.0087
618.3961	0.0005
618.5853	0.0021
618.7744	0.0119
618.9634	0.0167
619.1525	0.0061
619.3416	0.0059
619.5306	0.0083
619.7196	0.0086
619.9086	0.0008
620.0976	-0.0013
620.2866	0.0102
620.4755	0.0034
620.6645	0.0063
620.8534	0.0102
621.0423	0.0002
621.2312	0.0038
621.42	0.0001
621.6089	-0.0005
621.7977	0.0079
621.9865	0.0062
622.1753	-0.01
622.3641	0.007
622.5529	-0.0022
622.7416	-0.0023
622.9303	-0.0018
623.1191	0.0003
623.3078	0.0027
623.4964	-0.0018
623.6851	0.0105
623.8737	0.0001
624.0624	-0.007
624.251	0.0024
624.4396	0.0097
624.6282	0.0162
624.8167	0.0083
625.0053	0.0092
625.1938	-0.0002
625.3823	0.0075
625.5708	0.0022
625.7593	0.0055
625.9477	0.0116
626.1362	-0.0114
626.3246	0.006
626.513	0.0121
626.7014	0.0051
626.8898	0.0074
627.0781	0.0043
627.2665	0.0092
627.4548	-0.0039
627.6431	0.0157
627.8314	0.0251
628.0197	0.0139
628.2079	0.0082
628.3962	0.008
628.5844	-0.0004
628.7726	0.0067
628.9608	0.0078
629.1489	0.0032
629.3371	-0.0008
629.5252	0.0109
629.7134	-0.0082
629.9015	0.0036
630.0895	-0.0122
630.2776	0.0045
630.4657	0.0073
630.6537	0.0111
630.8417	-0.0002
631.0297	-0.0025
631.2177	0.0067
631.4057	0.0021
631.5936	-0.0046
631.7815	0.0118
631.9695	0.0192
632.1574	0.008
632.3452	0.0091
632.5331	-0.0002
632.7209	0.017
632.9088	0.0122
633.0966	0.0282
633.2844	-0.0008
633.4722	0.0142
633.6599	0.016
633.8477	0.0119
634.0354	0.0139
634.2231	-0.0184
634.4108	-0.0018
634.5985	0.0095
634.7861	-0.0063
634.9738	-0.0065
635.1614	0.009
635.349	-0.0041
635.5366	0.0032
635.7242	0.0171
635.9117	0.0073
636.0993	0.0061
636.2868	-0.0016
636.4743	0.0036
636.6618	-0.0079
636.8492	0.0148
637.0367	-0.0105
637.2241	0.0078
637.4115	0.0325
637.5989	0.0017
637.7863	0.0299
637.9737	0.0099
638.161	0.0192
638.3484	-0.0029
638.5357	-0.0135
638.723	0.0166
638.9103	0.0005
639.0975	0.0276
639.2848	0.0075
639.472	0.0106
639.6592	-0.0135
639.8464	0.0179
640.0336	-0.0078
640.2208	0.0088
640.4079	-0.0111
640.595	-0.0056
640.7821	0.016
640.9692	0.0051
641.1563	0.025
641.3434	0.0086
641.5304	0.015
641.7174	0.0153
641.9044	0.0155
642.0914	0.0243
642.2784	-0.0013
642.4653	0.0001
642.6523	0.0107
642.8392	-0.006
643.0261	0.0219
643.213	0.0068
643.3999	0.0123
643.5867	0.0131
643.7735	0.0035
643.9604	0.023
644.1472	0.0091
644.3339	0.0018
644.5207	0.0051
644.7075	0.0125
644.8942	0.0004
645.0809	0.0187
645.2676	-0.0011
645.4543	-0.0113
645.6409	0.0236
645.8276	0.0114
646.0142	-0.0004
646.2008	0.0082
646.3874	0.0148
646.574	-0.003
646.7605	-0.0024
646.9471	0.0134
647.1336	-0.01
647.3201	0.0118
647.5066	0.0068
647.6931	0.0052
647.8795	0.0143
648.0659	0.0293
648.2524	0.0189
648.4388	0.0122
648.6252	0.0201
648.8115	-0.0034
648.9979	0.0077
649.1842	0.0111
649.3705	0.0202
649.5568	-0.0134
649.7431	-0.0073
649.9294	-0.0129
650.1156	-0.014
650.3018	0.0233
650.488	-0.0031
650.6742	0.0326
650.8604	0.0034
651.0466	0.0006
651.2327	-0.005
651.4188	-0.0037
651.6049	0.0167
651.791	0.0051
651.9771	-0.0058
652.1632	-0.0044
652.3492	0.0122
652.5352	0.0144
652.7212	-0.0044
652.9072	0.0024
653.0932	0.0092
653.2791	-0.0023
653.465	0.0024
653.651	0.0043
653.8369	0.0028
654.0227	0.0035
654.2086	-0.0003
654.3944	0.0186
654.5803	0.0028
654.7661	-0.0036
654.9519	-0.0006
655.1377	0.0001
655.3234	0.0001
655.5092	0.0001
655.6949	0.0001
655.8806	0.0001
656.0663	0.0001
656.2519	0.0001
656.4376	0.0001
656.6232	0.0001
656.8088	0.0001
656.9945	0.0001
657.18	0.0001
657.3656	0.0001
657.5511	0.0001
657.7367	0.0001
657.9222	0.0001
658.1077	0.0001
658.2932	0.0001
658.4786	0.0001
658.6641	0.0001
658.8495	0.0001
659.0349	0.0001
659.2203	0.0001
659.4057	0.0001
659.591	0.1622
659.7764	0.0321
659.9617	0.0094
660.147	-0.0048
660.3323	-0.0007
660.5176	0.0156
660.7028	0.001
660.888	0.0001
661.0733	0.0108
661.2585	-0.0067
661.4436	0.0075
661.6288	0.0321
661.8139	-0.0076
661.9991	-0.0062
662.1842	0.0103
662.3693	0.007
662.5544	0.0123
662.7394	0.0173
662.9245	0.0115
663.1095	-0.0029
663.2945	-0.009
663.4795	-0.0063
663.6644	-0.0121
663.8494	0.0198
664.0343	0.0043
664.2193	0.0094
664.4042	0.0082
664.589	0.0046
664.7739	-0.0071
664.9587	-0.0123
665.1436	0.0083
665.3284	0.0024
665.5132	-0.0233
665.698	0.0106
665.8827	0.0121
666.0675	-0.0183
666.2522	0.0033
666.4369	0.0018
666.6216	0.0126
666.8063	0.0026
666.9909	0.0019
667.1756	0.0015
667.3602	-0.0115
667.5448	0.0236
667.7294	0.0221
667.9139	-0.0114
668.0985	0.0264
668.283	-0.0049
668.4675	0.015
668.652	0.0063
668.8365	0.0049
669.0209	0.0123
669.2054	0.0047
669.3898	0.015
669.5742	0.0376
669.7586	0.0255
669.943	-0.0112
670.1273	0.0189
670.3117	0.006
670.496	-0.0162
670.6803	0.0197
670.8646	-0.0203
671.0488	0.0369
671.2331	-0.0005
671.4173	0.0135
671.6015	0.0155
671.7857	-0.0029
671.9699	0.0155
672.1541	0.008
672.3382	0.0038
672.5223	0.0007
672.7064	-0.0097
672.8905	0.0017
673.0746	0.0171
673.2587	0.0137
673.4427	0.008
673.6267	0.0208
673.8107	0.0209
673.9947	0.0168
674.1787	0.0188
674.3626	0.011
674.5465	0.026
674.7304	-0.0056
674.9143	-0.0049
675.0982	0.0039
675.2821	0.0057
675.4659	0.0067
675.6497	0.0145
675.8335	0.0068
676.0173	0.0026
676.2011	0.0263
676.3849	0.0117
676.5686	0.0057
676.7523	-0.0076
676.936	0.0061
677.1197	0.0046
677.3034	0.0447
677.487	-0.0141
677.6706	0.0169
677.8542	-0.0008
678.0378	0.0008
678.2214	0.0048
678.405	0.0099
678.5885	0.0158
678.772	0.006
678.9555	-0.0177
679.139	0.0115
679.3225	-0.0085
679.5059	-0.0175
679.6894	0.012
679.8728	0.008
680.0562	-0.0045
680.2395	-0.0106
680.4229	-0.005
680.6062	-0.0054
680.7896	-0.01
680.9729	0.0231
681.1562	-0.0108
681.3394	-0.0134
681.5227	0.0122
681.7059	-0.0001
681.8891	-0.0049
682.0723	0.0079
682.2555	-0.0166
682.4387	0.0149
682.6218	0.016
682.805	-0.0027
682.9881	0.0278
683.1712	0.0105
683.3542	0.012
683.5373	-0.0082
683.7203	0.0196
683.9034	-0.0045
684.0864	0.0016
684.2694	-0.0019
684.4523	-0.0097
684.6353	-0.003
684.8182	-0.0083
685.0011	0.0105
685.184	-0.0063
685.3669	0.0391
685.5498	0.0094
685.7326	-0.0055
685.9154	-0.0029
686.0982	0.0188
686.281	-0.004
686.4638	0.0024
686.6465	-0.0056
686.8293	-0.0098
687.012	0.003
687.1947	-0.0037
687.3774	0.0016
687.56	-0.026
687.7427	0.017
687.9253	-0.0181
688.1079	-0.016
688.2905	-0.019
688.4731	0.0189
688.6556	0.0159
688.8382	-0.0429
689.0207	0.0098
689.2032	0.0134
689.3857	-0.0144
689.5681	0.001
689.7506	0.0244
689.933	-0.0072
690.1154	0.0134
690.2978	0.0109
690.4802	0.011
690.6626	0.0031
690.8449	-0.0007
691.0272	0.0064
691.2095	-0.0201
691.3918	-0.0029
691.5741	-0.0039
691.7563	0.0227
691.9386	0.0116
692.1208	0.0141
692.303	0.0009
692.4852	0.0076
692.6673	0.0139
692.8495	0.0056
693.0316	0.0076
693.2137	0.0091
693.3958	0.001
693.5778	0.0031
693.7599	0.0095
693.9419	0.0054
694.1239	0.022
694.3059	-0.0052
694.4879	0.009
694.6699	0.0019
694.8518	0.019
695.0337	0.0051
695.2157	0.0341
695.3975	0.0044
695.5794	0.0142
695.7613	0.0205
695.9431	-0.0149
696.1249	0.0204
696.3067	-0.0056
696.4885	0.0232
696.6703	0.0076
696.852	0.0032
697.0337	0.0088
697.2154	-0.0019
697.3971	0.0088
697.5788	0.0046
697.7605	0.0118
697.9421	0.0078
698.1237	0.0243
698.3053	-0.0009
698.4869	-0.0009
698.6685	-0.0262
698.85	0.0162
699.0315	-0.0075
699.213	0.0063
699.3945	0.0081
699.576	0.0319
699.7575	0.0226
699.9389	0.0045
700.1203	-0.0026
700.3017	-0.0025
700.4831	0.0322
700.6645	0.0143
700.8458	0.0078
701.0271	0.0353
701.2084	0.0049
701.3897	0.0291
701.571	-0.0005
701.7523	0.0139
701.9335	0.0172
702.1147	0.0243
702.2959	0.0104
702.4771	-0.004
702.6583	-0.0045
702.8394	-0.0124
703.0205	0.0211
703.2016	-0.0126
703.3827	-0.019
703.5638	-0.0103
703.7449	0.009
703.9259	0.013
704.1069	-0.0237
704.2879	0.0034
704.4689	-0.0119
704.6499	0.0203
704.8308	0.0101
705.0117	0.0326
705.1927	0.0184
705.3735	0.0154
705.5544	0.0295
705.7353	0.0045
705.9161	-0.0308
706.0969	0.0068
706.2777	0.0068
706.4585	-0.0044
706.6393	0.0175
706.82	0.0064
707.0007	-0.0104
707.1815	-0.0077
707.3621	0.0326
707.5428	0.038
707.7235	-0.0018
707.9041	0.0215
708.0847	0.0015
708.2653	0.0291
708.4459	-0.0075
708.6265	-0.0111
708.807	0.0266
708.9875	-0.0149
709.168	0.0023
709.3485	-0.0008
709.529	0.0135
709.7095	-0.0103
709.8899	0.0121
710.0703	0.0228
710.2507	0.0205
710.4311	-0.0122
710.6115	0.0146
710.7918	0.0217
710.9721	0.0061
711.1524	-0.0246
711.3327	-0.008
711.513	-0.0135
711.6932	0.0161
711.8735	0.0034
712.0537	0.0015
712.2339	0.008
712.4141	0.0369
712.5942	-0.0162
712.7744	0.0222
712.9545	0.0095
713.1346	0.0173
713.3147	0.011
713.4947	-0.008
713.6748	0.0044
713.8548	0.0175
714.0348	0.0201
714.2148	-0.0048
714.3948	0.024
714.5748	0.0008
714.7547	0.0088
714.9346	0.0331
715.1145	0.0157
715.2944	-0.0179
715.4743	0.0075
715.6541	-0.0044
715.834	0.0393
716.0138	0.0262
716.1936	-0.0076
716.3733	0.0008
716.5531	0.0156
716.7328	0.005
716.9126	0.0391
717.0923	-0.0114
717.2719	0.0132
717.4516	0.0391
717.6312	0.0131
717.8109	0.0121
717.9905	0.0195
718.1701	0.0255
718.3496	0.0106
718.5292	0.0148
718.7087	0.0256
718.8882	0.0266
719.0677	0.0193
719.2472	-0.0034
719.4267	0.0107
719.6061	-0.0074
719.7856	0.0176
719.965	0.0413
720.1443	-0.011
720.3237	0.0131
720.5031	-0.0013
720.6824	0.0044
720.8617	0.0002
721.041	0.035
721.2203	-0.0117
721.3995	0.0052
721.5788	0.0062
721.758	-0.0022
721.9372	0.0179
722.1164	0.0277
722.2956	-0.005
722.4747	0.0033
722.6538	0.0238
722.8329	0.0164
723.012	0.0114
723.1911	0.0233
723.3702	0.0389
723.5492	0.0169
723.7282	0.0116
723.9072	0.0275
724.0862	-0.0094
724.2652	0.0124
724.4441	0.0093
724.623	-0.012
724.8019	0.0203
724.9808	0.0092
725.1597	0.0126
725.3385	0.0056
725.5174	0.0012
725.6962	0.0026
725.875	-0.0073
726.0538	0.0086
726.2325	0.0005
726.4112	-0.0206
726.59	0.0045
726.7687	0.0061
726.9474	0.0076
727.126	0.0094
727.3047	-0.0291
727.4833	-0.0046
727.6619	0.0053
727.8405	-0.0086
728.0191	0.0026
728.1976	-0.0215
728.3762	-0.0122
728.5547	0.0196
728.7332	0.0214
728.9116	0.0088
729.0901	0.0084
729.2686	0.0104
729.447	-0.003
729.6254	0.0129
729.8038	0.0234
729.9821	0.0091
730.1605	0.0089
730.3388	0.0046
730.5171	0.0302
730.6954	-0.0067
730.8737	0.0122
731.0519	-0.0014
731.2302	0.0127
731.4084	-0.0037
731.5866	0.0051
731.7648	0.0273
731.9429	0.0286
732.1211	-0.0126
732.2992	0.0184
732.4773	-0.0121
732.6554	0.0007
732.8335	0.0282
733.0115	0.0105
733.1896	0.0026
733.3676	0.013
733.5456	-0.0001
733.7235	0.0057
733.9015	0.0163
734.0794	-0.0022
734.2574	-0.0018
734.4353	0.0161
734.6131	0.0052
734.791	-0.0126
734.9689	-0.0217
735.1467	-0.0072
735.3245	0.0107
735.5023	0.0034
735.68	-0.0109
735.8578	0.0216
736.0355	0.0093
736.2132	0.0036
736.3909	0.0077
736.5686	0.0054
736.7463	-0.0211
736.9239	0.0188
737.1015	-0.0016
737.2791	0.0124
737.4567	0.0161
737.6343	0.007
737.8118	0.04
737.9894	0.0174
738.1669	0.0002
738.3444	0.0252
738.5218	-0.0222
738.6993	0.0078
738.8767	-0.0016
739.0541	-0.0082
739.2315	0.0158
739.4089	0.0013
739.5863	-0.012
739.7636	0.0093
739.9409	0.0116
740.1182	-0.01
740.2955	0.014
740.4728	-0.0315
740.65	-0.009
740.8272	0.0388
741.0044	-0.006
741.1816	0.0157
741.3588	-0.0177
741.5359	-0.0027
741.7131	0.0151
741.8902	-0.0014
742.0673	-0.0207
742.2444	0.0169
742.4214	0.0079
742.5985	0.0028
742.7755	0.0139
742.9525	-0.0665
743.1295	-0.0116
743.3064	0.0151
743.4834	-0.0027
743.6603	0.023
743.8372	-0.0327
744.0141	0.0595
744.191	-0.0016
744.3678	-0.0179
744.5446	0.0085
744.7215	-0.0002
744.8982	-0.0002
745.075	0.0448
745.2518	-0.0051
745.4285	0.0245
745.6052	-0.052
745.7819	0.014
745.9586	0.0182
746.1353	0.0075
746.3119	0.0239
746.4885	0.0386
746.6651	-0.0057
746.8417	0.0223
747.0183	0.0195
747.1948	-0.0049
747.3714	0.0074
747.5479	0.0295
747.7244	-0.0103
747.9008	0.0256
748.0773	0.0198
748.2537	0.0259
748.4301	0.0201
748.6065	-0.0104
748.7829	0.0044
748.9593	-0.0122
749.1356	0.0071
749.3119	0.0207
749.4882	0.025
749.6645	-0.01
749.8408	0.0083
750.017	0.0151
750.1933	-0.02
750.3695	-0.0014
750.5457	-0.0115
750.7218	0.0069
750.898	0.0005
751.0741	-0.009
751.2502	0.0124
751.4263	-0.0042
751.6024	-0.0213
751.7784	0.0044
751.9545	-0.0024
752.1305	0.0106
752.3065	0.0312
752.4825	-0.0242
752.6584	0.0057
752.8344	-0.0107
753.0103	0.019
753.1862	0.0104
753.3621	-0.0102
753.5379	-0.0074
753.7138	0.0249
753.8896	0.02
754.0654	-0.0085
754.2412	0.0196
754.417	0.0152
754.5927	0.013
754.7685	0.0147
754.9442	0.0217
755.1199	0.0182
755.2956	-0.0075
755.4712	0.0178
755.6469	0.0089
755.8225	-0.0004
755.9981	0.0211
756.1736	-0.0057
756.3492	0.0097
756.5248	0.0229
756.7003	0.0032
756.8758	0.0142
757.0513	-0.0005
757.2267	-0.0039
757.4022	0.0019
757.5776	-0.0019
757.753	0.0234
757.9284	0.0224
758.1038	0.0251
758.2791	0.004
758.4545	-0.0223
758.6298	0.0101
758.8051	0.0077
758.9803	0.0037
759.1556	0.0024
759.3308	-0.0053
759.506	0.005
759.6812	0.0042
759.8564	-0.0067
760.0316	-0.0046
760.2067	0.0324
760.3819	-0.0001
760.557	0.008
760.732	0.0022
760.9071	0.0252
761.0821	0.0002
761.2572	0.0156
761.4322	-0.0069
761.6072	0.007
761.7821	-0.0196
761.9571	0.0192
762.132	-0.0009
762.3069	0.0143
762.4818	0.0037
762.6567	0.002
762.8316	0.01
763.0064	0.0256
763.1812	0.002
763.356	-0.0116
763.5308	0.0243
763.7055	0.0008
763.8803	0.0035
764.055	0.0099
764.2297	0.0027
764.4044	-0.0123
764.579	0.0006
764.7537	0.0149
764.9283	-0.005
765.1029	0.0117
765.2775	0.0035
765.4521	-0.0018
765.6266	-0.0029
765.8011	0.0033
765.9756	0.0031
766.1501	0.0045
766.3246	-0.0042
766.4991	0.0234
766.6735	0.0379
766.8479	0.0046
767.0223	0.0267
767.1967	-0.0014
767.371	0.0198
767.5454	0.0394
767.7197	0.0245
767.894	0.0171
768.0683	0.037
768.2425	0.013
768.4168	0.0032
768.591	0.0108
768.7652	-0.0065
768.9394	-0.003
769.1135	0.0011
769.2877	0.0341
769.4618	0.0118
769.6359	0.0065
769.81	0.0035
769.984	0.0074
770.1581	-0.002
770.3321	0.033
770.5061	-0.0009
770.6801	0.0106
770.8541	0.0124
771.028	0.0688
771.202	0.0116
771.3759	0.0104
771.5498	0.0066
771.7236	-0.002
771.8975	0.0232
772.0713	0.0199
772.2451	-0.0098
772.4189	-0.0173
772.5927	-0.0193
772.7665	-0.0212
772.9402	0.0268
773.1139	0.0098
773.2876	-0.0154
773.4613	-0.0333
773.635	0.0093
773.8086	0.0282
773.9822	0.0553
774.1558	0.0445
774.3294	0.0206
774.503	-0.0132
774.6765	0.0185
774.8501	0.0004
775.0236	0.031
775.1971	0.016
775.3705	0.0131
775.544	-0.0499
775.7174	-0.0028
775.8908	-0.0012
776.0642	0.0374
776.2376	0.0081
776.4109	0.0592
776.5843	-0.0267
776.7576	0.0116
776.9309	0.038
777.1041	-0.0237
777.2774	-0.0174
777.4506	0.039
777.6238	-0.0397
777.797	0.0394
777.9702	0.0103
778.1434	-0.007
778.3165	0.0072
778.4896	-0.0422
778.6627	-0.0101
778.8358	-0.0293
779.0089	-0.0109
779.1819	0.0438
779.3549	0.0068
779.5279	-0.0093
779.7009	0.0179
779.8739	0.1061
780.0468	-0.001
780.2197	0.0064
780.3926	-0.0022
780.5655	-0.0002
780.7384	-0.0028
780.9112	0.0229
781.0841	-0.017
781.2569	0.0034
781.4297	0.0212
781.6024	-0.0149
781.7752	0.0331
781.9479	0.068
782.1206	0.0115
782.2933	0.0026
782.466	0.0445
782.6386	0.0137
782.8113	0.0145
782.9839	0.022
783.1565	-0.0089
783.329	0.0115
783.5016	0.0292
783.6741	-0.0292
783.8466	0.0256
784.0191	0.0207
784.1916	-0.0409
784.3641	-0.0585
784.5365	0.016
784.7089	-0.0254
784.8813	0.045
785.0537	0.0215
785.2261	0.0012
785.3984	0.0224
785.5707	-0.0003
785.743	0.0473
785.9153	0.0375
786.0876	0.0035
786.2598	-0.0048
786.432	-0.0047
786.6042	0.0388
786.7764	0.0234
786.9486	-0.0139
787.1207	0.0542
787.2928	0.0264
787.4649	0.0312
787.637	-0.0181
787.8091	0.0021
787.9811	0.058
788.1532	0.0418
788.3252	0.0074
788.4972	0.016
788.6691	0.0092
788.8411	0.0182
789.013	-0.0046
789.1849	-0.035
789.3568	0.002
789.5287	0.0789
789.7005	0.0082
789.8723	0.0043
790.0442	0.0096
790.2159	0.0111
790.3877	0.0826
790.5595	0.0219
790.7312	-0.0064
790.9029	0.0068
791.0746	-0.0072
791.2463	-0.0329
791.4179	-0.0088
791.5896	0.0291
791.7612	0.0221
791.9328	0.0032
792.1044	-0.0237
792.2759	-0.0127
792.4474	-0.0119
792.619	0.0029
792.7905	0.0181
792.9619	0.0442
793.1334	0.0421
793.3048	0.0812
793.4762	0.015
793.6476	0.0013
793.819	0.0132
793.9904	0.001
794.1617	-0.0161
794.333	0.0169
794.5043	0.0026
794.6756	-0.006
794.8469	0.004
795.0181	0.021
795.1893	0.034
795.3605	0.0242
795.5317	-0.0105
795.7029	-0.0193
795.874	0.0015
796.0452	0.0558
796.2163	0.0712
796.3873	0.025
796.5584	-0.0102
796.7294	0.0827
796.9005	-0.0006
797.0715	-0.0236
797.2425	0.0288
797.4134	0.0374
797.5844	0.0884
797.7553	-0.0617
797.9262	0.0316
798.0971	0.0397
798.2679	0.0231
798.4388	0.047
798.6096	-0.0218
798.7804	0.022
798.9512	0.0634
799.122	-0.0206
799.2927	0.1086
799.4635	-0.0123
799.6342	-0.023
799.8049	0.0534
799.9755	0.0158
800.1462	-0.0371
800.3168	0.0524
800.4874	-0.0952
800.658	-0.0388
800.8286	0.1017
800.9991	0.082
801.1696	-0.0163
801.3402	-0.0391
801.5106	-0.0931
801.6811	0.0082
801.8516	0.0156
802.022	-0.0749
802.1924	-0.0329
802.3628	0.0831
802.5332	0.0052
802.7035	0.1083
802.8739	0.0484
803.0442	-0.04
803.2145	0.0386
803.3847	-0.0348
803.555	0.0591
803.7252	-0.0112
803.8954	0.0043
804.0656	-0.0051
804.2358	0.0332
804.4059	0.0151
804.5761	-0.059
804.7462	0.0278
804.9163	0.0041
805.0864	-0.0358
805.2564	0.0165
805.4264	-0.0137
805.5965	0.0694
805.7665	-0.0494
805.9364	-0.0627
806.1064	-0.0199
806.2763	0.0495
806.4462	0.0156
806.6161	0.0076
806.786	0.0382
806.9559	0.0403
807.1257	-0.0364
807.2955	0.0052
807.4653	0.0177
807.6351	0.0513
807.8048	0.0364
807.9746	-0.0293
808.1443	-0.0178
808.314	0.031
808.4837	0.0725
808.6533	0.0723
808.8229	0.0192
808.9926	0.0231
809.1622	-0.0109
809.3317	-0.0159
809.5013	-0.0507
809.6708	0.0892
809.8403	0.0175
810.0098	-0.0784
810.1793	0.0339
810.3488	-0.0046
810.5182	0.0173
810.6876	-0.0104
810.857	0.0505
811.0264	-0.0705
811.1958	0.0671
811.3651	0.0621
811.5344	0.0309
811.7037	0.0834
811.873	0.001
812.0422	-0.076
812.2115	-0.0323
812.3807	-0.0729
812.5499	-0.031
812.7191	-0.0219
812.8882	0.0179
813.0574	0.0514
813.2265	0.0759
813.3956	0.0762
813.5646	0.0223
813.7337	-0.0623
813.9027	-0.0381
814.0718	0.0065
814.2407	0.0241
814.4097	0.0264
814.5787	0.0358
814.7476	-0.0135
814.9165	0.034
815.0854	-0.072
815.2543	0.0782
815.4232	0.1163
815.592	0.0697
815.7608	-0.1529
815.9296	0.0882
816.0984	-0.0384
816.2671	-0.1681
816.4359	0.1106
816.6046	0.0048
816.7733	-0.062
816.942	0.0236
817.1106	0.1017
817.2793	0.0194
817.4479	0.1327
817.6165	-0.0026
817.785	-0.0076
817.9536	-0.0794
818.1221	0.0159
818.2906	-0.1255
818.4591	0.0818
818.6276	-0.1028
818.7961	-0.0521
818.9645	-0.016
819.1329	0.061
819.3013	-0.029
819.4697	-0.1245
819.638	-0.0796
819.8064	0.0733
819.9747	-0.0236
820.143	-0.0742
820.3113	0.1164
820.4795	0.0538
820.6477	0.0908
820.816	0.0724
820.9842	0.1166
821.1523	0.0691
821.3205	0.0177
821.4886	-0.0362
821.6567	-0.0697
821.8248	0.0833
821.9929	-0.1559
822.1609	0.0262
822.329	0.0727
822.497	-0.0341
822.665	-0.0383
822.833	0.1135
823.0009	-0.0724
823.1688	-0.1062
823.3367	-0.0685
823.5046	-0.0011
823.6725	0.0433
823.8404	-0.0067
824.0082	-0.0416
824.176	-0.0669
824.3438	0.1568
824.5116	0.0353
824.6793	0.1902
824.847	0.0214
825.0147	-0.1035
825.1824	-0.0277
825.3501	0.205
825.5177	-0.1114
825.6854	-0.1079
825.853	0.0163
826.0206	0.1128
826.1881	0.1139
826.3557	0.1107
826.5232	0.0595
826.6907	0.1423
826.8582	-0.0935
827.0257	-0.0328
827.1931	0.0903
827.3605	0.051
827.528	-0.0691
827.6953	-0.2437
827.8627	-0.075
828.03	0.0065
828.1974	0.0226
828.3647	0.0918
828.532	-0.0262
828.6992	0.3668
828.8665	-0.179
829.0337	-0.0053
829.2009	0.0437
829.3681	0.1486
829.5352	-0.2875
829.7024	0.1174
829.8695	-0.0839
830.0366	-0.064
830.2037	0.0153
830.3707	-0.0589
830.5378	-0.1003
830.7048	-0.1811
830.8718	0.0069
831.0388	0.0987
831.2057	-0.0751
831.3727	-0.131
831.5396	-0.1122
831.7065	-0.5181
831.8734	-0.0208
832.0402	0.0735
832.2071	-0.5696
832.3739	-0.2511
832.5407	-1.9062
832.7075	-0.2848
832.8742	0.5329
833.041	0.0553
833.2077	0.3227
833.3744	-0.0994
833.541	-0.02
833.7077	-0.0208
833.8743	0.1015
834.0409	0.1613
834.2075	0.0685
834.3741	-0.244
834.5407	-0.1433
834.7072	0.0535
834.8737	0.1372
835.0402	0.4413
835.2067	0.0459
835.3731	-0.2336
835.5395	0.1019
835.706	-0.1416
835.8723	0.0886
836.0387	0.0501
836.2051	0.4738
836.3714	-0.222
836.5377	-0.1142
836.704	0.2095
836.8703	-0.1535
837.0365	-0.8014
837.2027	0.0381
837.3689	0.6771
837.5351	0.0641
837.7013	-0.3245
837.8674	-0
838.0335	-0.0022
838.1997	0.0187
838.3657	-0
838.5318	-0.6711
838.6978	-0
838.8639	-0.6174
839.0299	-0.1651
839.1958	0.2124
839.3618	-0
839.5277	-0.0446
839.6937	1.1418
839.8596	-0.3001
840.0254	0.0691
840.1913	-0.5388
840.3571	-0.085
840.523	-0
840.6888	0.2152
840.8545	-0.1584
841.0203	0.0424
841.186	-0.1353
841.3517	0.0248
841.5174	0.2093
841.6831	-0.1009
841.8488	-0.107
842.0144	0.8041
842.18	0.6878
842.3456	-0.3626
842.5112	-0
842.6767	-0.2176
842.8422	-0.2119
843.0077	0.3409
843.1732	0.0348
843.3387	-0.0055
843.5042	-0.1199
843.6696	0.2008
843.835	0.1964
844.0004	-0.1489
844.1657	-0
844.3311	-0
844.4964	-0.7291
844.6617	0.3602
844.827	-0
844.9923	0.2801
845.1575	0.792
845.3227	-0.4293
845.4879	0.3115
845.6531	0.0977
845.8183	-0.1355
845.9834	-0
846.1485	0.1297
846.3136	-0.2103
846.4787	-0
846.6438	-0.1682
846.8088	-0
846.9738	-0
847.1388	0.6232
847.3038	-0
847.4687	-0
847.6337	-0.3733
847.7986	-0.0197
847.9635	0.1612
848.1284	1.1874
848.2932	0.3647
848.458	-0
848.6228	0.2845
848.7876	-0
848.9524	-0.3855
849.1172	-1.5563
849.2819	-0
849.4466	0.4569
849.6113	0.138
849.7759	0.2034
849.9406	0.1622
850.1052	-1.3445
850.2698	0.3379
850.4344	-1.001
850.599	0.0523
850.7635	0.403
850.928	0.2654
851.0925	0.2012
851.257	-0.1402
851.4215	-0
851.5859	0.4347
851.7503	-0
851.9147	-0.1786
852.0791	-0.0953
852.2434	0.1513
852.4078	-0
852.5721	0.2972
852.7364	-0.2136
852.9007	-0.1498
853.0649	-0
853.2291	-0
853.3934	-0
853.5575	-0.1152
853.7217	0.1908
853.8859	-0
854.05	-0.26
854.2141	0.2838
854.3782	-0.1235
854.5423	0.4669
854.7063	0.5543
854.8703	0.2162
855.0343	-0.0036
855.1983	0.1582
855.3623	-0.12
855.5262	-0
855.6901	0.5538
855.854	0.7207
856.0179	0.2102
856.1818	0.1868
856.3456	0.2779
856.5094	-0.4977
856.6732	-0
856.837	-1.4203
857.0008	-0.1077
857.1645	-0.3209
857.3282	-0.2511
857.4919	1.7449
857.6556	-0
857.8192	-0.1733
857.9828	-0.0571
858.1465	-0.2221
858.31	-0
858.4736	-0.7676
858.6372	-0
858.8007	-0.0946
858.9642	1.0333
859.1277	0.4264
859.2911	-0.6269
859.4546	-0
859.618	0.0856
859.7814	-0
859.9448	-0
860.1081	-0.3495
860.2715	-0
860.4348	-0
860.5981	-0
860.7614	-0.2979
860.9246	-0.0759
861.0879	-0.1618
861.2511	-0
861.4143	-0
861.5774	0.1119
861.7406	0.0119
861.9037	-0
862.0668	-0
862.2299	-0.216
862.393	0.1739
862.556	-0.3164
862.7191	-0.0378
862.8821	0.0893
863.0451	-0.1493
863.208	-0
863.371	-0.6574
863.5339	0.2611
863.6968	1.0063
863.8597	0.1927
864.0225	-0.0667
864.1854	-0.3153
864.3482	-1.1441
864.511	0.2962
864.6737	-0
864.8365	0.3336
864.9992	-0
865.1619	0.4937
865.3246	-1.659
865.4873	0.1017
865.65	-0
865.8126	0.3089
865.9752	0.1865
866.1378	0.2585
866.3004	0.0411
866.4629	-1.6491
866.6254	-0.549
866.7879	-0.32
866.9504	-0.3247
867.1129	-0.2511
867.2753	-0.2087
867.4377	0.2257
867.6001	-0.7991
867.7625	-0.1349
867.9249	-0
868.0872	-0.1567
868.2495	0.6944
868.4118	-0
868.5741	-0
868.7363	-0
868.8986	-0.154
869.0608	0.1795
869.223	-0.6931
869.3851	-0.3602
869.5473	0.0228
869.7094	0.2076
869.8715	-0.9509
870.0336	0.0683
870.1957	-0.5456
870.3577	0.0547
870.5197	0.244
870.6817	-0.7498
870.8437	-0.0407
871.0057	-0
871.1676	0.0078
871.3295	-0
871.4914	-0
871.6533	-0.1734
871.8151	0.0791
871.977	-0.3259
872.1388	-0.0303
872.3006	-0.6995
872.4623	-0.412
872.6241	-0
872.7858	0.0084
872.9475	0.2925
873.1092	0.0749
873.2709	0.0502
873.4325	-1.9417
873.5941	-0
873.7557	-0
873.9173	-0.4154
874.0789	0.1657
874.2404	-0
874.4019	0.1964
874.5634	-0
874.7249	-0
874.8863	-0.0813
875.0478	-0.1305
875.2092	0.6396
875.3706	0.3602
875.5319	-0.2021
875.6933	-0
875.8546	-0
876.0159	0.6066
876.1772	-0
876.3385	1.0741
876.4997	0.2953
876.6609	-0
876.8221	-0
876.9833	0.0953
877.1445	0.1686
877.3056	-0.9495
877.4667	-0.6705
877.6278	0.4469
877.7889	-0.0595
877.9499	1.0359
878.111	-0.4696
878.272	-0
878.433	0.1422
878.5939	-0.0073
878.7549	-0
878.9158	-0.1316
879.0767	0.0271
879.2376	-0
879.3984	0.489
879.5593	0.155
879.7201	-0
879.8809	13.8732
880.0417	0.052
880.2024	0.0542
880.3632	-0.5696
880.5239	-0.1818
880.6846	-0.4977
880.8452	0.0054
881.0059	-0
881.1665	-0.0739
881.3271	-0
881.4877	-0
881.6483	-0
881.8088	-0
881.9693	-0
882.1298	-0
882.2903	-0
