Data from D4ACN5uM440nmA_Absorbance_13-50-26-738.txt Node
Date: Fri Feb 21 13:50:26 GMT 2025
User: LASERRRRR
Spectrometer: FLMT03099
Trigger mode: 0
Integration Time (sec): 1.500000E-2
Scans to average: 1
Electric dark correction enabled: true
Nonlinearity correction enabled: false
Boxcar width: 0
XAxis mode: Wavelengths
Number of Pixels in Spectrum: 3648
>>>>>Begin Spectral Data<<<<<
179.3399	-0.4139
179.5586	-0.4139
179.7771	-0.4139
179.9957	-0.3449
180.2143	-0
180.4329	-0
180.6514	-0
180.8699	1.5299
181.0885	-0
181.307	0.0717
181.5255	-0.2133
181.744	-0
181.9625	0.3069
182.181	-0.1713
182.3994	0.2007
182.6179	0.1723
182.8363	-0
183.0547	0.0526
183.2732	0.0721
183.4916	0.2234
183.71	0.2875
183.9284	-0.0044
184.1467	-0.0336
184.3651	0.2098
184.5835	0.165
184.8018	0.0867
185.0201	0.0862
185.2385	0.0834
185.4568	0.1829
185.6751	0.0074
185.8934	-0.011
186.1117	0.0745
186.3299	0.2673
186.5482	0.091
186.7664	0.1364
186.9847	-0.0317
187.2029	0.1438
187.4211	-0.0736
187.6393	0.1074
187.8575	0.3451
188.0757	0.2285
188.2939	0.0114
188.512	0.2392
188.7302	-0.055
188.9483	0.2723
189.1665	0.3546
189.3846	0.0843
189.6027	0.2368
189.8208	0.1806
190.0389	0.1919
190.257	0.1337
190.475	0.0662
190.6931	0.132
190.9111	-0.0441
191.1292	0.1363
191.3472	0.1534
191.5652	0.1952
191.7832	0.3536
192.0012	0.1566
192.2192	0.2429
192.4371	0.1439
192.6551	0.1525
192.873	0.1505
193.091	0.2043
193.3089	0.2266
193.5268	0.1683
193.7447	0.2231
193.9626	0.2677
194.1805	0.3001
194.3984	0.2513
194.6162	0.2402
194.8341	0.2895
195.0519	0.2095
195.2697	0.3193
195.4875	0.2982
195.7054	0.2927
195.9231	0.1925
196.1409	0.3975
196.3587	0.3061
196.5765	0.2558
196.7942	0.3593
197.012	0.2958
197.2297	0.3222
197.4474	0.3304
197.6651	0.3292
197.8828	0.3173
198.1005	0.4036
198.3182	0.446
198.5358	0.3984
198.7535	0.3668
198.9711	0.3724
199.1888	0.3355
199.4064	0.4313
199.624	0.3448
199.8416	0.3453
200.0592	0.3546
200.2767	0.384
200.4943	0.4204
200.7119	0.3891
200.9294	0.4125
201.1469	0.4462
201.3645	0.4301
201.582	0.3801
201.7995	0.4023
202.017	0.4165
202.2344	0.3903
202.4519	0.4139
202.6694	0.4034
202.8868	0.3777
203.1042	0.39
203.3217	0.4119
203.5391	0.3948
203.7565	0.3527
203.9739	0.355
204.1913	0.3355
204.4086	0.3318
204.626	0.3855
204.8433	0.3616
205.0607	0.3677
205.278	0.36
205.4953	0.3678
205.7126	0.3611
205.9299	0.3528
206.1472	0.3259
206.3644	0.324
206.5817	0.3341
206.7989	0.3132
207.0162	0.3179
207.2334	0.3297
207.4506	0.2984
207.6678	0.2789
207.885	0.2972
208.1022	0.2887
208.3194	0.2911
208.5365	0.3078
208.7537	0.2658
208.9708	0.29
209.1879	0.2859
209.405	0.2684
209.6222	0.2843
209.8392	0.3036
210.0563	0.2659
210.2734	0.2544
210.4905	0.2771
210.7075	0.2821
210.9245	0.2598
211.1416	0.2526
211.3586	0.2686
211.5756	0.2401
211.7926	0.2512
212.0096	0.2511
212.2265	0.2594
212.4435	0.2537
212.6604	0.2515
212.8774	0.2385
213.0943	0.2644
213.3112	0.2426
213.5281	0.2318
213.745	0.2319
213.9619	0.2358
214.1788	0.2528
214.3956	0.246
214.6125	0.2613
214.8293	0.2507
215.0461	0.2383
215.2629	0.2607
215.4798	0.2531
215.6965	0.2421
215.9133	0.2458
216.1301	0.2395
216.3469	0.2421
216.5636	0.2535
216.7803	0.2402
216.9971	0.2588
217.2138	0.2351
217.4305	0.2477
217.6472	0.2416
217.8639	0.2417
218.0805	0.2351
218.2972	0.2558
218.5138	0.2558
218.7305	0.2414
218.9471	0.2396
219.1637	0.2636
219.3803	0.2593
219.5969	0.2397
219.8135	0.2534
220.0301	0.2462
220.2466	0.2571
220.4632	0.2625
220.6797	0.2652
220.8962	0.2488
221.1127	0.2623
221.3292	0.2548
221.5457	0.2688
221.7622	0.2632
221.9787	0.2733
222.1951	0.2645
222.4116	0.2706
222.628	0.2799
222.8444	0.2731
223.0608	0.2886
223.2772	0.284
223.4936	0.2794
223.71	0.282
223.9264	0.2972
224.1427	0.2806
224.3591	0.28
224.5754	0.2896
224.7917	0.2809
225.008	0.297
225.2243	0.3047
225.4406	0.2962
225.6569	0.3015
225.8732	0.3124
226.0894	0.3056
226.3057	0.2958
226.5219	0.3073
226.7381	0.3133
226.9543	0.3099
227.1705	0.3155
227.3867	0.3142
227.6029	0.3243
227.8191	0.335
228.0352	0.3364
228.2513	0.3527
228.4675	0.3282
228.6836	0.3493
228.8997	0.3407
229.1158	0.3574
229.3319	0.3666
229.548	0.3586
229.764	0.3552
229.9801	0.3742
230.1961	0.3768
230.4121	0.3589
230.6282	0.3782
230.8442	0.3883
231.0602	0.3828
231.2761	0.3846
231.4921	0.3884
231.7081	0.3926
231.924	0.3944
232.14	0.4037
232.3559	0.3937
232.5718	0.4132
232.7877	0.4088
233.0036	0.4051
233.2195	0.4138
233.4353	0.4244
233.6512	0.4272
233.867	0.4248
234.0829	0.4316
234.2987	0.4335
234.5145	0.4371
234.7303	0.4351
234.9461	0.4429
235.1619	0.4412
235.3776	0.4277
235.5934	0.4269
235.8091	0.4448
236.0249	0.454
236.2406	0.4396
236.4563	0.4556
236.672	0.4405
236.8877	0.4491
237.1034	0.4418
237.319	0.4556
237.5347	0.4454
237.7503	0.4428
237.966	0.4587
238.1816	0.4461
238.3972	0.4591
238.6128	0.465
238.8284	0.4534
239.0439	0.449
239.2595	0.4535
239.475	0.4615
239.6906	0.4628
239.9061	0.4619
240.1216	0.451
240.3371	0.4631
240.5526	0.4647
240.7681	0.4583
240.9836	0.4632
241.199	0.4506
241.4145	0.4554
241.6299	0.4545
241.8453	0.4358
242.0607	0.4371
242.2761	0.43
242.4915	0.4317
242.7069	0.4156
242.9223	0.4243
243.1376	0.4109
243.353	0.4086
243.5683	0.4013
243.7836	0.3865
243.9989	0.3866
244.2142	0.3799
244.4295	0.3748
244.6448	0.37
244.86	0.3613
245.0753	0.352
245.2905	0.3415
245.5057	0.3366
245.721	0.3392
245.9362	0.3304
246.1514	0.3219
246.3665	0.3097
246.5817	0.3083
246.7969	0.2945
247.012	0.2943
247.2271	0.2956
247.4423	0.285
247.6574	0.2919
247.8725	0.2761
248.0876	0.2762
248.3026	0.2744
248.5177	0.2607
248.7328	0.2597
248.9478	0.2493
249.1628	0.2491
249.3779	0.2391
249.5929	0.2401
249.8079	0.2405
250.0228	0.2294
250.2378	0.2286
250.4528	0.2301
250.6677	0.2188
250.8827	0.2156
251.0976	0.2136
251.3125	0.2134
251.5274	0.2059
251.7423	0.2099
251.9572	0.2116
252.172	0.2035
252.3869	0.2097
252.6017	0.2105
252.8166	0.2017
253.0314	0.1977
253.2462	0.1971
253.461	0.1952
253.6758	0.193
253.8906	0.1915
254.1053	0.1953
254.3201	0.1876
254.5348	0.1876
254.7496	0.1803
254.9643	0.1916
255.179	0.1845
255.3937	0.1877
255.6083	0.1912
255.823	0.1832
256.0377	0.184
256.2523	0.1848
256.467	0.189
256.6816	0.1811
256.8962	0.181
257.1108	0.1877
257.3254	0.1778
257.54	0.1763
257.7545	0.1886
257.9691	0.1787
258.1836	0.1739
258.3981	0.1795
258.6127	0.17
258.8272	0.1816
259.0417	0.1727
259.2561	0.1725
259.4706	0.1754
259.6851	0.1765
259.8995	0.1756
260.114	0.1836
260.3284	0.1718
260.5428	0.1742
260.7572	0.1779
260.9716	0.1801
261.186	0.1729
261.4003	0.1724
261.6147	0.1771
261.829	0.1767
262.0433	0.1766
262.2577	0.1801
262.472	0.1815
262.6863	0.1796
262.9005	0.1804
263.1148	0.1808
263.3291	0.1794
263.5433	0.1831
263.7576	0.1851
263.9718	0.1801
264.186	0.1809
264.4002	0.1848
264.6144	0.188
264.8286	0.1807
265.0427	0.1863
265.2569	0.1876
265.471	0.1879
265.6851	0.188
265.8993	0.1812
266.1134	0.1897
266.3275	0.1877
266.5415	0.1844
266.7556	0.1921
266.9697	0.1921
267.1837	0.1868
267.3978	0.1871
267.6118	0.1822
267.8258	0.1916
268.0398	0.1928
268.2538	0.1878
268.4677	0.1864
268.6817	0.1865
268.8957	0.1833
269.1096	0.1777
269.3235	0.1854
269.5374	0.1853
269.7514	0.186
269.9652	0.1847
270.1791	0.1794
270.393	0.182
270.6068	0.183
270.8207	0.1789
271.0345	0.183
271.2483	0.1725
271.4622	0.1826
271.676	0.1805
271.8897	0.1791
272.1035	0.1861
272.3173	0.1794
272.531	0.179
272.7448	0.179
272.9585	0.1789
273.1722	0.1776
273.3859	0.1823
273.5996	0.1879
273.8133	0.1825
274.0269	0.1796
274.2406	0.1876
274.4542	0.1816
274.6679	0.1839
274.8815	0.1896
275.0951	0.1923
275.3087	0.1949
275.5223	0.1895
275.7358	0.1932
275.9494	0.192
276.1629	0.1959
276.3765	0.1901
276.59	0.1889
276.8035	0.1916
277.017	0.1949
277.2305	0.1982
277.444	0.1958
277.6574	0.2001
277.8709	0.2016
278.0843	0.2002
278.2978	0.2015
278.5112	0.2007
278.7246	0.194
278.938	0.1933
279.1513	0.1998
279.3647	0.1941
279.5781	0.1929
279.7914	0.192
280.0047	0.1935
280.2181	0.1904
280.4314	0.1888
280.6447	0.1938
280.8579	0.1837
281.0712	0.1828
281.2845	0.1909
281.4977	0.1901
281.711	0.1878
281.9242	0.1884
282.1374	0.1888
282.3506	0.1926
282.5638	0.1879
282.7769	0.1781
282.9901	0.1902
283.2033	0.1858
283.4164	0.1867
283.6295	0.1819
283.8426	0.1864
284.0557	0.1899
284.2688	0.1925
284.4819	0.183
284.695	0.1918
284.908	0.1821
285.1211	0.1885
285.3341	0.1813
285.5471	0.1883
285.7601	0.1842
285.9731	0.1843
286.1861	0.1882
286.3991	0.1875
286.612	0.1892
286.825	0.1852
287.0379	0.1832
287.2508	0.1834
287.4637	0.1882
287.6766	0.185
287.8895	0.1869
288.1024	0.1882
288.3152	0.1866
288.5281	0.1825
288.7409	0.1896
288.9538	0.1849
289.1666	0.1849
289.3794	0.1854
289.5922	0.18
289.8049	0.1807
290.0177	0.1866
290.2304	0.1908
290.4432	0.1924
290.6559	0.1892
290.8686	0.1873
291.0813	0.1849
291.294	0.1844
291.5067	0.1845
291.7194	0.1829
291.932	0.18
292.1447	0.1845
292.3573	0.1847
292.5699	0.1856
292.7825	0.1813
292.9951	0.1939
293.2077	0.1836
293.4203	0.1871
293.6328	0.1875
293.8454	0.1844
294.0579	0.1821
294.2704	0.1899
294.4829	0.1845
294.6954	0.1822
294.9079	0.1824
295.1204	0.1833
295.3328	0.1916
295.5453	0.1843
295.7577	0.1843
295.9701	0.1908
296.1825	0.1832
296.3949	0.1806
296.6073	0.1797
296.8197	0.1839
297.0321	0.1868
297.2444	0.1808
297.4567	0.1851
297.6691	0.1831
297.8814	0.1862
298.0937	0.1842
298.306	0.1858
298.5182	0.1841
298.7305	0.1884
298.9428	0.1881
299.155	0.176
299.3672	0.1876
299.5794	0.1835
299.7916	0.1818
300.0038	0.1871
300.216	0.1818
300.4282	0.1831
300.6403	0.1888
300.8525	0.1824
301.0646	0.1876
301.2767	0.1862
301.4888	0.1848
301.7009	0.1848
301.913	0.1867
302.125	0.1852
302.3371	0.1908
302.5491	0.188
302.7612	0.1914
302.9732	0.184
303.1852	0.1863
303.3972	0.1885
303.6092	0.1879
303.8211	0.1874
304.0331	0.18
304.245	0.1868
304.457	0.1853
304.6689	0.1816
304.8808	0.1821
305.0927	0.1841
305.3046	0.181
305.5164	0.1819
305.7283	0.1769
305.9401	0.1699
306.152	0.1743
306.3638	0.1802
306.5756	0.1781
306.7874	0.1765
306.9992	0.1719
307.2109	0.1747
307.4227	0.1685
307.6344	0.1727
307.8462	0.1683
308.0579	0.1674
308.2696	0.1666
308.4813	0.1685
308.693	0.1585
308.9046	0.1689
309.1163	0.1571
309.328	0.1592
309.5396	0.153
309.7512	0.1518
309.9628	0.1539
310.1744	0.1522
310.386	0.1434
310.5976	0.1463
310.8091	0.1547
311.0207	0.1486
311.2322	0.1436
311.4437	0.146
311.6552	0.1508
311.8667	0.1488
312.0782	0.1464
312.2897	0.1507
312.5012	0.1462
312.7126	0.1457
312.924	0.1406
313.1355	0.1372
313.3469	0.1402
313.5583	0.1427
313.7696	0.1409
313.981	0.1396
314.1924	0.1365
314.4037	0.1385
314.6151	0.1409
314.8264	0.1366
315.0377	0.1371
315.249	0.1394
315.4603	0.1307
315.6716	0.1337
315.8828	0.1375
316.0941	0.1348
316.3053	0.1357
316.5165	0.1331
316.7277	0.129
316.9389	0.1394
317.1501	0.133
317.3613	0.1288
317.5724	0.1346
317.7836	0.1255
317.9947	0.1271
318.2058	0.1273
318.417	0.1354
318.6281	0.1281
318.8391	0.1328
319.0502	0.1327
319.2613	0.1346
319.4723	0.129
319.6834	0.1372
319.8944	0.1293
320.1054	0.1374
320.3164	0.1277
320.5274	0.1262
320.7383	0.1321
320.9493	0.1318
321.1602	0.1356
321.3712	0.1333
321.5821	0.1261
321.793	0.1368
322.0039	0.1315
322.2148	0.1302
322.4257	0.1236
322.6365	0.1235
322.8474	0.139
323.0582	0.1325
323.269	0.1297
323.4798	0.1378
323.6906	0.1281
323.9014	0.1286
324.1122	0.1312
324.3229	0.1357
324.5337	0.1369
324.7444	0.1345
324.9551	0.135
325.1658	0.1359
325.3765	0.1348
325.5872	0.1389
325.7979	0.1398
326.0085	0.1324
326.2192	0.1304
326.4298	0.1368
326.6404	0.1454
326.851	0.1337
327.0616	0.1394
327.2722	0.1412
327.4828	0.136
327.6933	0.1502
327.9039	0.1382
328.1144	0.1402
328.3249	0.1425
328.5354	0.1414
328.7459	0.1449
328.9564	0.1485
329.1669	0.1393
329.3773	0.1421
329.5878	0.1424
329.7982	0.1443
330.0086	0.1478
330.219	0.146
330.4294	0.1457
330.6398	0.1471
330.8502	0.1482
331.0605	0.1472
331.2708	0.143
331.4812	0.1502
331.6915	0.1496
331.9018	0.147
332.1121	0.1493
332.3224	0.1465
332.5326	0.142
332.7429	0.144
332.9531	0.1552
333.1633	0.1434
333.3735	0.1405
333.5837	0.1418
333.7939	0.1475
334.0041	0.156
334.2143	0.1436
334.4244	0.1527
334.6346	0.1457
334.8447	0.1435
335.0548	0.1468
335.2649	0.1488
335.475	0.1463
335.685	0.1439
335.8951	0.1456
336.1051	0.1524
336.3152	0.1536
336.5252	0.1375
336.7352	0.1456
336.9452	0.1472
337.1552	0.1445
337.3652	0.1409
337.5751	0.142
337.7851	0.1496
337.995	0.1529
338.2049	0.1477
338.4148	0.1491
338.6247	0.1487
338.8346	0.1444
339.0445	0.1485
339.2543	0.1535
339.4642	0.1465
339.674	0.1495
339.8838	0.1488
340.0936	0.1451
340.3034	0.1485
340.5132	0.1393
340.7229	0.1469
340.9327	0.1528
341.1424	0.146
341.3522	0.1424
341.5619	0.1547
341.7716	0.1531
341.9813	0.1561
342.1909	0.1581
342.4006	0.1574
342.6102	0.1512
342.8199	0.1563
343.0295	0.1464
343.2391	0.1622
343.4487	0.1609
343.6583	0.1708
343.8679	0.1525
344.0774	0.1618
344.287	0.1576
344.4965	0.1688
344.706	0.163
344.9155	0.1603
345.125	0.1618
345.3345	0.1797
345.544	0.167
345.7534	0.1671
345.9629	0.165
346.1723	0.1719
346.3817	0.1654
346.5911	0.1716
346.8005	0.1761
347.0099	0.1739
347.2193	0.1754
347.4286	0.1811
347.638	0.1745
347.8473	0.1796
348.0566	0.1675
348.2659	0.1757
348.4752	0.1772
348.6845	0.1747
348.8937	0.1755
349.103	0.1759
349.3122	0.1773
349.5214	0.1866
349.7306	0.1892
349.9398	0.1743
350.149	0.1765
350.3582	0.1839
350.5674	0.1864
350.7765	0.1877
350.9856	0.1847
351.1948	0.187
351.4039	0.182
351.613	0.181
351.822	0.1909
352.0311	0.1851
352.2402	0.1846
352.4492	0.1867
352.6582	0.1816
352.8672	0.1854
353.0762	0.1848
353.2852	0.1851
353.4942	0.1853
353.7032	0.1801
353.9121	0.1844
354.1211	0.1847
354.33	0.1852
354.5389	0.1791
354.7478	0.1815
354.9567	0.1844
355.1655	0.1822
355.3744	0.1787
355.5833	0.1827
355.7921	0.1912
356.0009	0.187
356.2097	0.18
356.4185	0.1817
356.6273	0.1881
356.8361	0.1916
357.0448	0.1855
357.2536	0.1863
357.4623	0.187
357.671	0.1923
357.8797	0.1939
358.0884	0.1799
358.2971	0.1883
358.5057	0.1993
358.7144	0.1899
358.923	0.193
359.1316	0.193
359.3402	0.1911
359.5488	0.1896
359.7574	0.1893
359.966	0.196
360.1746	0.193
360.3831	0.2014
360.5916	0.1979
360.8002	0.1967
361.0087	0.1917
361.2172	0.2006
361.4256	0.1992
361.6341	0.1969
361.8426	0.203
362.051	0.2025
362.2594	0.2019
362.4678	0.1965
362.6762	0.2052
362.8846	0.2082
363.093	0.2024
363.3014	0.2099
363.5097	0.2093
363.718	0.2038
363.9264	0.2119
364.1347	0.2091
364.343	0.2126
364.5513	0.2094
364.7595	0.2175
364.9678	0.205
365.176	0.2096
365.3842	0.2114
365.5925	0.2125
365.8007	0.2157
366.0089	0.2255
366.217	0.2128
366.4252	0.2176
366.6333	0.2171
366.8415	0.2197
367.0496	0.2259
367.2577	0.2227
367.4658	0.2154
367.6739	0.2164
367.882	0.2284
368.09	0.2109
368.2981	0.225
368.5061	0.238
368.7141	0.2241
368.9221	0.23
369.1301	0.226
369.3381	0.2316
369.5461	0.23
369.754	0.2301
369.962	0.2258
370.1699	0.2345
370.3778	0.2366
370.5857	0.2262
370.7936	0.2319
371.0015	0.236
371.2093	0.2272
371.4172	0.2263
371.625	0.2298
371.8328	0.2311
372.0406	0.2439
372.2484	0.233
372.4562	0.2343
372.664	0.2438
372.8717	0.2446
373.0795	0.243
373.2872	0.2465
373.4949	0.243
373.7026	0.244
373.9103	0.2418
374.118	0.2419
374.3256	0.2474
374.5333	0.2472
374.7409	0.2436
374.9485	0.2407
375.1561	0.2562
375.3637	0.2416
375.5713	0.2539
375.7789	0.245
375.9864	0.2496
376.194	0.2584
376.4015	0.2474
376.609	0.251
376.8165	0.2518
377.024	0.2492
377.2315	0.2567
377.4389	0.2509
377.6464	0.2553
377.8538	0.2577
378.0612	0.2586
378.2686	0.2529
378.476	0.2642
378.6834	0.2479
378.8908	0.2595
379.0981	0.2602
379.3055	0.2597
379.5128	0.2505
379.7201	0.2574
379.9274	0.2584
380.1347	0.2587
380.342	0.2737
380.5492	0.2679
380.7565	0.2627
380.9637	0.2719
381.1709	0.2571
381.3781	0.2753
381.5853	0.2633
381.7925	0.2671
381.9997	0.272
382.2068	0.2694
382.4139	0.2674
382.6211	0.2679
382.8282	0.2674
383.0353	0.275
383.2424	0.2715
383.4494	0.2676
383.6565	0.2757
383.8635	0.2754
384.0706	0.2746
384.2776	0.2762
384.4846	0.267
384.6916	0.2747
384.8986	0.2817
385.1055	0.285
385.3125	0.2789
385.5194	0.2808
385.7263	0.2722
385.9333	0.2729
386.1402	0.2755
386.347	0.2643
386.5539	0.2767
386.7608	0.2759
386.9676	0.2777
387.1744	0.2769
387.3813	0.2816
387.5881	0.2681
387.7948	0.2732
388.0016	0.2935
388.2084	0.2734
388.4151	0.2701
388.6219	0.2617
388.8286	0.2841
389.0353	0.2721
389.242	0.2747
389.4487	0.2692
389.6553	0.2631
389.862	0.2551
390.0686	0.2739
390.2753	0.2658
390.4819	0.2758
390.6885	0.2636
390.8951	0.252
391.1016	0.2667
391.3082	0.2696
391.5147	0.2539
391.7213	0.2503
391.9278	0.2563
392.1343	0.2592
392.3408	0.257
392.5473	0.2536
392.7537	0.2521
392.9602	0.2513
393.1666	0.2592
393.373	0.2466
393.5794	0.2541
393.7858	0.2541
393.9922	0.25
394.1986	0.2402
394.4049	0.2439
394.6113	0.246
394.8176	0.2431
395.0239	0.242
395.2302	0.2403
395.4365	0.2555
395.6428	0.2415
395.8491	0.2409
396.0553	0.2382
396.2615	0.2385
396.4678	0.2457
396.674	0.2379
396.8802	0.2365
397.0863	0.2478
397.2925	0.2363
397.4987	0.2337
397.7048	0.2351
397.9109	0.2285
398.117	0.2386
398.3231	0.2255
398.5292	0.2332
398.7353	0.2193
398.9413	0.2278
399.1474	0.2299
399.3534	0.2219
399.5594	0.2418
399.7654	0.2318
399.9714	0.2374
400.1774	0.2294
400.3833	0.2335
400.5893	0.2312
400.7952	0.2363
401.0011	0.2218
401.207	0.2253
401.4129	0.2378
401.6188	0.2323
401.8247	0.2344
402.0305	0.2253
402.2364	0.2314
402.4422	0.2308
402.648	0.232
402.8538	0.2196
403.0596	0.2235
403.2654	0.2286
403.4711	0.2282
403.6768	0.2321
403.8826	0.2313
404.0883	0.2217
404.294	0.2272
404.4997	0.2312
404.7054	0.2304
404.911	0.2262
405.1167	0.234
405.3223	0.2319
405.5279	0.228
405.7335	0.2261
405.9391	0.2252
406.1447	0.2402
406.3502	0.2357
406.5558	0.2259
406.7613	0.2305
406.9668	0.2206
407.1724	0.225
407.3778	0.2253
407.5833	0.2133
407.7888	0.2314
407.9942	0.2296
408.1997	0.2364
408.4051	0.2406
408.6105	0.2311
408.8159	0.2302
409.0213	0.2311
409.2267	0.224
409.432	0.2364
409.6374	0.2249
409.8427	0.24
410.048	0.2346
410.2533	0.2298
410.4586	0.2201
410.6639	0.228
410.8691	0.2224
411.0744	0.2254
411.2796	0.2278
411.4848	0.2353
411.69	0.2263
411.8952	0.2278
412.1004	0.2366
412.3056	0.2192
412.5107	0.2233
412.7158	0.2319
412.921	0.2285
413.1261	0.2247
413.3312	0.2294
413.5362	0.2341
413.7413	0.2292
413.9464	0.2111
414.1514	0.2204
414.3564	0.2185
414.5614	0.2169
414.7664	0.2199
414.9714	0.2252
415.1764	0.2254
415.3813	0.2168
415.5863	0.2266
415.7912	0.227
415.9961	0.2271
416.201	0.2284
416.4059	0.2308
416.6108	0.2243
416.8156	0.2186
417.0205	0.2197
417.2253	0.2232
417.4301	0.2301
417.6349	0.2184
417.8397	0.2188
418.0445	0.2167
418.2492	0.2127
418.454	0.2167
418.6587	0.211
418.8634	0.2197
419.0681	0.225
419.2728	0.2109
419.4775	0.2294
419.6822	0.209
419.8868	0.2067
420.0915	0.2074
420.2961	0.2038
420.5007	0.2142
420.7053	0.2117
420.9099	0.2103
421.1144	0.2087
421.319	0.2184
421.5235	0.2085
421.728	0.2138
421.9325	0.207
422.137	0.2015
422.3415	0.2031
422.546	0.1961
422.7504	0.2056
422.9549	0.2048
423.1593	0.1987
423.3637	0.2017
423.5681	0.2072
423.7725	0.2006
423.9769	0.2059
424.1812	0.1918
424.3856	0.1965
424.5899	0.1985
424.7942	0.1928
424.9985	0.1914
425.2028	0.209
425.4071	0.2008
425.6113	0.1941
425.8156	0.1907
426.0198	0.2
426.224	0.1953
426.4282	0.1918
426.6324	0.1846
426.8366	0.1873
427.0407	0.1786
427.2449	0.1814
427.449	0.1873
427.6531	0.1875
427.8572	0.1824
428.0613	0.1892
428.2654	0.1794
428.4694	0.1742
428.6735	0.1791
428.8775	0.1799
429.0815	0.1773
429.2855	0.1756
429.4895	0.1657
429.6935	0.1696
429.8975	0.1666
430.1014	0.1705
430.3053	0.161
430.5093	0.1682
430.7132	0.1629
430.9171	0.1729
431.1209	0.1696
431.3248	0.1511
431.5286	0.1576
431.7325	0.1595
431.9363	0.148
432.1401	0.1512
432.3439	0.1564
432.5477	0.1484
432.7514	0.1448
432.9552	0.1498
433.1589	0.1452
433.3627	0.1492
433.5664	0.1495
433.7701	0.1539
433.9737	0.1451
434.1774	0.1517
434.3811	0.1358
434.5847	0.1388
434.7883	0.1391
434.9919	0.1326
435.1955	0.1395
435.3991	0.135
435.6027	0.1271
435.8062	0.1468
436.0098	0.1302
436.2133	0.1248
436.4168	0.1311
436.6203	0.1194
436.8238	0.1213
437.0272	0.1231
437.2307	0.116
437.4341	0.121
437.6375	0.1256
437.841	0.1102
438.0443	0.1128
438.2477	0.0991
438.4511	0.1046
438.6545	0.1091
438.8578	0.1065
439.0611	0.1144
439.2644	0.1107
439.4677	0.1078
439.671	0.0965
439.8743	0.1012
440.0775	0.0927
440.2808	0.0941
440.484	0.0981
440.6872	0.0985
440.8904	0.082
441.0936	0.0851
441.2967	0.0854
441.4999	0.0871
441.703	0.0851
441.9062	0.0908
442.1093	0.0987
442.3124	0.0877
442.5155	0.0913
442.7185	0.0762
442.9216	0.0743
443.1246	0.0744
443.3276	0.0818
443.5307	0.07
443.7337	0.0776
443.9366	0.072
444.1396	0.0724
444.3426	0.0705
444.5455	0.0728
444.7484	0.0688
444.9513	0.0694
445.1542	0.0682
445.3571	0.0624
445.56	0.061
445.7628	0.0666
445.9657	0.0681
446.1685	0.0707
446.3713	0.0635
446.5741	0.0728
446.7769	0.0686
446.9797	0.062
447.1824	0.0605
447.3852	0.0435
447.5879	0.0466
447.7906	0.0525
447.9933	0.0547
448.196	0.0418
448.3986	0.0508
448.6013	0.0486
448.8039	0.0506
449.0066	0.0651
449.2092	0.0531
449.4118	0.0508
449.6143	0.0434
449.8169	0.0438
450.0195	0.0446
450.222	0.05
450.4245	0.0486
450.627	0.0361
450.8295	0.0407
451.032	0.0379
451.2345	0.0396
451.4369	0.0392
451.6394	0.0367
451.8418	0.0374
452.0442	0.0416
452.2466	0.0319
452.449	0.0356
452.6513	0.0302
452.8537	0.0315
453.056	0.0285
453.2583	0.036
453.4607	0.0236
453.663	0.0387
453.8652	0.0305
454.0675	0.0422
454.2697	0.0239
454.472	0.0187
454.6742	0.0358
454.8764	0.0341
455.0786	0.0183
455.2808	0.0315
455.4829	0.0273
455.6851	0.0117
455.8872	0.021
456.0893	0.0219
456.2915	0.0198
456.4935	0.026
456.6956	0.0243
456.8977	0.017
457.0997	0.0338
457.3018	0.014
457.5038	0.0324
457.7058	0.0244
457.9078	0.0295
458.1098	0.0282
458.3117	0.024
458.5137	0.0101
458.7156	0.0192
458.9175	0.0232
459.1194	0.0178
459.3213	0.0174
459.5232	0.0194
459.725	0.0197
459.9269	0.0223
460.1287	0.0089
460.3305	0.0195
460.5323	0.0135
460.7341	0.0235
460.9359	0.0152
461.1376	0.0218
461.3394	0.0191
461.5411	0.0206
461.7428	0.0141
461.9445	0.0092
462.1462	0.0154
462.3479	0.0096
462.5495	0.0261
462.7512	0.0152
462.9528	0.0185
463.1544	0.0043
463.356	0.01
463.5576	0.0135
463.7592	0.0234
463.9607	0.0191
464.1623	0.0221
464.3638	0.0105
464.5653	0.0173
464.7668	0.0148
464.9683	0.0086
465.1697	0.0116
465.3712	0.0044
465.5726	0.0061
465.7741	0.0113
465.9755	0.0092
466.1769	0.0093
466.3782	0.014
466.5796	0.0108
466.7809	0.0137
466.9823	0.0106
467.1836	0.0153
467.3849	0.0107
467.5862	0.0002
467.7875	0.0108
467.9887	0.0072
468.19	0.0107
468.3912	0.0213
468.5924	0.0093
468.7936	0.0113
468.9948	0.0037
469.196	0.0004
469.3972	0.0077
469.5983	0.0087
469.7994	0.0167
470.0006	0.009
470.2017	0.0157
470.4027	0.0269
470.6038	0.0083
470.8049	0.0072
471.0059	0.0084
471.2069	0.0158
471.408	0.0174
471.6089	0.0056
471.8099	0.0147
472.0109	0.0145
472.2119	0.0213
472.4128	0.0053
472.6137	-0.0003
472.8146	0.0088
473.0155	0.0268
473.2164	0.0117
473.4173	0.0015
473.6181	0.0076
473.819	0.007
474.0198	0.0045
474.2206	0.004
474.4214	0.0098
474.6222	0.0012
474.8229	0.0132
475.0237	0.0164
475.2244	0.0106
475.4251	0.0009
475.6258	-0.0006
475.8265	0.0163
476.0272	0.0023
476.2278	0.0072
476.4285	0.0035
476.6291	0.0154
476.8297	0.007
477.0303	0.0053
477.2309	0.0047
477.4315	0.0085
477.632	-0.0001
477.8326	0.0073
478.0331	0.0134
478.2336	0.0039
478.4341	0.0088
478.6346	0.0085
478.8351	-0.0027
479.0355	0.0146
479.236	0.0055
479.4364	0.0034
479.6368	0.0007
479.8372	0.006
480.0376	0.0076
480.2379	0.0071
480.4383	0.0092
480.6386	-0.003
480.8389	0.0102
481.0392	0.0045
481.2395	0.0119
481.4398	0.0102
481.6401	0.0086
481.8403	0.0043
482.0405	0.011
482.2408	0.0168
482.441	0.018
482.6411	0.0026
482.8413	-0.0037
483.0415	0.0173
483.2416	0.0047
483.4417	0.0055
483.6419	0.0024
483.8419	0.0067
484.042	0.0089
484.2421	0.0035
484.4422	-0.0001
484.6422	-0.0007
484.8422	0.0086
485.0422	0.005
485.2422	0.01
485.4422	0.0039
485.6422	0.0038
485.8421	0.0075
486.042	0.0103
486.242	0.0024
486.4419	0.0063
486.6417	0.0024
486.8416	0.0067
487.0415	0.0005
487.2413	0.0044
487.4411	0.0069
487.641	0.0012
487.8408	0.0156
488.0405	0.011
488.2403	0.007
488.4401	0.0121
488.6398	0.0131
488.8395	0.0096
489.0392	0.0113
489.2389	-0.0014
489.4386	-0.0012
489.6383	-0.0004
489.8379	0.0021
490.0376	0.001
490.2372	0.0011
490.4368	0.0036
490.6364	-0.0035
490.836	0.0084
491.0355	-0.0055
491.2351	0.0098
491.4346	0.0074
491.6341	0.0056
491.8336	0.0127
492.0331	-0.0004
492.2326	0.0064
492.432	0.0051
492.6315	0.0104
492.8309	0.007
493.0303	0.0042
493.2297	0.0081
493.4291	0.0094
493.6284	0.0127
493.8278	0.0081
494.0271	0.0063
494.2264	-0.0011
494.4257	0.011
494.625	0.0046
494.8243	0.0093
495.0236	0.0092
495.2228	0.0107
495.422	0.0061
495.6213	0.0052
495.8205	0.006
496.0196	0.0039
496.2188	0.0047
496.418	-0.0029
496.6171	0.0014
496.8162	0.0056
497.0153	0.0088
497.2144	0.0096
497.4135	0.006
497.6126	0.0061
497.8116	0.0056
498.0107	0.0042
498.2097	0.0162
498.4087	0.0066
498.6077	-0.0062
498.8067	0.009
499.0056	0.0002
499.2046	0.0051
499.4035	0.0044
499.6024	-0.0007
499.8013	0.0184
500.0002	0.01
500.199	0.0146
500.3979	0.006
500.5967	0.0048
500.7956	0.008
500.9944	0.003
501.1932	0.0116
501.3919	0.0178
501.5907	0.007
501.7895	0.0028
501.9882	0.0049
502.1869	0.0174
502.3856	0.0069
502.5843	0.0031
502.783	0.0009
502.9816	0.0133
503.1803	0.0057
503.3789	0.0091
503.5775	0.0041
503.7761	0.0009
503.9747	0.0046
504.1732	-0.0066
504.3718	0.0171
504.5703	0.0078
504.7689	-0.0023
504.9674	0.0007
505.1658	0.0041
505.3643	0.0177
505.5628	0.0169
505.7612	0.0135
505.9597	-0.0018
506.1581	0.0009
506.3565	0.0087
506.5549	0.0031
506.7532	0.0012
506.9516	0.0045
507.1499	0.0094
507.3482	0.008
507.5465	0.0083
507.7448	0.0041
507.9431	0.0076
508.1414	-0.0036
508.3396	0.0026
508.5379	0.012
508.7361	0.0076
508.9343	0.0105
509.1325	0.0054
509.3306	0.0035
509.5288	-0.0058
509.7269	0.013
509.9251	0.0082
510.1232	0.0082
510.3213	0.0079
510.5193	-0.0016
510.7174	-0.0043
510.9154	0.0055
511.1135	0.0008
511.3115	-0.0016
511.5095	0.0045
511.7075	0.0083
511.9055	0.0129
512.1034	0.0114
512.3014	0.0063
512.4993	0.0092
512.6972	0.0003
512.8951	0.001
513.093	-0.0009
513.2908	0.0192
513.4887	0.0048
513.6865	0.011
513.8844	0.0136
514.0822	0.0053
514.2799	-0.0044
514.4777	0.0015
514.6755	0.01
514.8732	0.0008
515.0709	0.0023
515.2687	0.0042
515.4664	0.0167
515.664	0.0071
515.8617	0.0033
516.0594	0.0056
516.257	0.0124
516.4546	0.0115
516.6522	0.0028
516.8498	-0.0001
517.0474	0.0128
517.2449	0.0003
517.4425	0.0058
517.64	0.0115
517.8375	0.0112
518.035	-0.0028
518.2325	-0.0094
518.43	0.0014
518.6274	0.0019
518.8249	0.001
519.0223	0.0168
519.2197	0.0009
519.4171	-0.0014
519.6145	0.0046
519.8118	-0.0008
520.0092	0.0048
520.2065	0.0042
520.4038	0.0037
520.6011	0.0092
520.7984	0.0074
520.9956	0.0039
521.1929	0.0043
521.3901	0.0065
521.5874	0.0105
521.7846	-0.0028
521.9818	0.0045
522.1789	0.0003
522.3761	0.0195
522.5732	0.0044
522.7704	0.0005
522.9675	-0.0152
523.1646	-0.0009
523.3617	0.0072
523.5587	0.0083
523.7558	0.003
523.9528	0.0113
524.1498	0.0064
524.3468	0.0079
524.5438	0.0004
524.7408	-0.0043
524.9378	0.0028
525.1347	0.0071
525.3316	-0.0068
525.5285	0.0077
525.7254	0.0213
525.9223	0.0102
526.1192	0.0118
526.316	0.0044
526.5129	0.0093
526.7097	0.0034
526.9065	0.006
527.1033	0.0097
527.3	0.0061
527.4968	0.0135
527.6935	-0.0027
527.8903	0.0061
528.087	0.0044
528.2837	0.0145
528.4804	-0.0005
528.677	0.0114
528.8737	0.0053
529.0703	0.0005
529.2669	0.0129
529.4635	0.0042
529.6601	-0
529.8567	-0.0007
530.0532	0.0038
530.2498	0.0005
530.4463	0.005
530.6428	0.016
530.8393	0.007
531.0358	0.0001
531.2322	0.0038
531.4287	0.0031
531.6251	-0.0063
531.8215	0.005
532.0179	0.0103
532.2143	0.0109
532.4107	0.0091
532.607	0.007
532.8034	0.0037
532.9997	-0.0018
533.196	0.0046
533.3923	0.0106
533.5886	0.0087
533.7848	0.0075
533.9811	0.0102
534.1773	0.0032
534.3735	0.0203
534.5697	0.0019
534.7659	0.0105
534.9621	0.0052
535.1582	0.0041
535.3544	-0.0029
535.5505	0.0059
535.7466	0.0149
535.9427	0.0029
536.1387	-0.0067
536.3348	-0.0007
536.5308	0.011
536.7269	0.0067
536.9229	0.0084
537.1189	0.0113
537.3148	0.0064
537.5108	0.0143
537.7068	0.014
537.9027	-0.0115
538.0986	0.0106
538.2945	0.007
538.4904	0.0026
538.6863	0.0087
538.8821	0.0112
539.078	0.0046
539.2738	0.0083
539.4696	-0.0032
539.6654	0.0038
539.8611	0.0059
540.0569	0.0095
540.2526	0.0016
540.4484	0.0009
540.6441	0.0032
540.8398	0.0084
541.0355	-0.0017
541.2311	0.0104
541.4268	0.0118
541.6224	0.0152
541.818	0.0045
542.0136	0.008
542.2092	0.004
542.4048	0.0083
542.6003	-0.0015
542.7959	0.0076
542.9914	0.0067
543.1869	0.0043
543.3824	0.0079
543.5779	0.0044
543.7734	0.0098
543.9688	0.0064
544.1642	0.0045
544.3596	0.0084
544.555	0.0052
544.7504	0.0121
544.9458	0.0062
545.1411	0.0078
545.3365	0.003
545.5318	0.0103
545.7271	0.0076
545.9224	0.005
546.1177	0.0068
546.3129	-0.0006
546.5081	-0.0013
546.7034	-0.0017
546.8986	0.0015
547.0938	0.0078
547.289	0.0145
547.4841	0.0094
547.6793	0.0047
547.8744	0.0024
548.0695	0.0051
548.2646	0.0116
548.4597	0.0036
548.6548	0.0161
548.8498	0.0134
549.0448	-0.0062
549.2399	0.0097
549.4349	0.0029
549.6298	0.0144
549.8248	0.0103
550.0198	0.0123
550.2147	0.0033
550.4096	0.0064
550.6045	0.0005
550.7994	0.0077
550.9943	0.0044
551.1892	-0.004
551.384	0.0149
551.5788	-0.0016
551.7737	0.011
551.9685	0.0041
552.1632	0.0053
552.358	0.005
552.5528	0.0076
552.7475	-0.0013
552.9422	0.0123
553.1369	0.0089
553.3316	0.0057
553.5263	0.0089
553.7209	0.0028
553.9156	-0.0024
554.1102	0.0057
554.3048	0.0036
554.4994	0.0016
554.694	0.0065
554.8885	0.0103
555.0831	0.0102
555.2776	0.0137
555.4721	0.0084
555.6666	-0.0046
555.8611	0.0033
556.0555	0.0073
556.25	0.0009
556.4444	-0.0004
556.6388	0.0083
556.8332	0.0077
557.0276	0.0109
557.222	-0.001
557.4163	0.0047
557.6107	-0.0045
557.805	-0.0002
557.9993	0.0103
558.1936	-0.0095
558.3879	0.0056
558.5821	-0.0034
558.7764	0.0018
558.9706	0.0058
559.1648	0.0069
559.359	-0.0027
559.5532	0.0057
559.7473	0.0105
559.9415	0.0074
560.1356	0.0166
560.3297	0.0048
560.5238	0.0065
560.7179	-0.0056
560.9119	0.0017
561.106	-0.0021
561.3	0.0078
561.494	-0.0068
561.688	-0.0024
561.882	0.0042
562.076	0.0114
562.2699	0.0091
562.4639	0.0132
562.6578	0.0129
562.8517	0.0064
563.0456	0.0079
563.2395	0.0027
563.4333	0.0008
563.6272	0.0048
563.821	0.0049
564.0148	0.0049
564.2086	0.0018
564.4024	0.0163
564.5961	0.016
564.7899	0.0121
564.9836	0.01
565.1773	0.0086
565.371	0.0004
565.5647	0.0077
565.7584	0.0153
565.952	0.0069
566.1456	0.0074
566.3393	0.0053
566.5329	0.0044
566.7264	0.0078
566.92	0.0112
567.1136	-0.0028
567.3071	-0.0039
567.5006	0.0089
567.6941	0.0008
567.8876	0.0002
568.0811	0.0117
568.2745	0.001
568.468	0.001
568.6614	0.012
568.8548	0.0045
569.0482	0.0054
569.2416	0.0033
569.4349	0.0081
569.6283	0.0085
569.8216	0.0071
570.0149	0.0011
570.2082	0.0076
570.4015	0.0056
570.5947	0.0062
570.788	0.0023
570.9812	0.0008
571.1744	0.0088
571.3676	0.0059
571.5608	0.0056
571.754	0.0108
571.9471	0.0118
572.1402	0.0065
572.3333	0.0039
572.5264	0.0081
572.7195	0.0002
572.9126	0.0062
573.1057	0.0057
573.2987	0.0026
573.4917	0.0052
573.6847	0.0045
573.8777	0.0065
574.0707	0.0076
574.2636	-0.0007
574.4566	0.001
574.6495	0.0031
574.8424	0.0084
575.0353	0.0103
575.2281	0.008
575.421	0.0024
575.6138	-0.0004
575.8067	0.005
575.9995	0.0031
576.1923	0.0083
576.385	0.0037
576.5778	0.0112
576.7706	0.0057
576.9633	0.0073
577.156	-0.0009
577.3487	0.0058
577.5414	0.0046
577.734	0.0026
577.9267	0.0057
578.1193	0.008
578.3119	0.0015
578.5045	0.0017
578.6971	0.0024
578.8897	0.0048
579.0822	0.0067
579.2747	0.0052
579.4673	0.0067
579.6598	0.0076
579.8522	0.0013
580.0447	0.0095
580.2372	0.0101
580.4296	0.0109
580.622	0.0068
580.8144	0.0082
581.0068	0.0058
581.1992	0.0058
581.3915	0
581.5839	0.0062
581.7762	0.0045
581.9685	0.0052
582.1608	0.0028
582.353	0.0062
582.5453	0.0053
582.7375	0.0063
582.9298	0.0029
583.122	0.0008
583.3142	0.0097
583.5063	0.0062
583.6985	0.0004
583.8906	0.0003
584.0827	0.0109
584.2749	0.0029
584.4669	0.0018
584.659	0.007
584.8511	0.0099
585.0431	0.0067
585.2352	0.0047
585.4272	0.0057
585.6192	0.0063
585.8111	0.0044
586.0031	-0.0003
586.195	0.003
586.387	0.0026
586.5789	0.0086
586.7708	0.0064
586.9627	0.0037
587.1545	0.006
587.3464	0.0092
587.5382	0.0037
587.73	0.0055
587.9218	-0.0002
588.1136	0.0062
588.3053	0.0081
588.4971	0.0058
588.6888	0.0014
588.8805	0.0005
589.0722	0.0095
589.2639	0.0061
589.4556	0.0048
589.6472	0.01
589.8389	0.0068
590.0305	0.0019
590.2221	0.0051
590.4137	0.0047
590.6052	0.0081
590.7968	0.0021
590.9883	0.0014
591.1798	0.0039
591.3713	0.004
591.5628	0.0081
591.7543	0.0076
591.9458	0.0018
592.1372	0.0066
592.3286	0.0071
592.52	0.0015
592.7114	0.0051
592.9028	0.0083
593.0941	0.0047
593.2855	0.0054
593.4768	0.0045
593.6681	0.0087
593.8594	0.0079
594.0506	0.0043
594.2419	0.0056
594.4331	0.0062
594.6244	-0.0031
594.8156	0.0022
595.0067	0.0033
595.1979	0.0061
595.3891	0.0028
595.5802	0.0156
595.7713	-0.0001
595.9624	0.0127
596.1535	0.0017
596.3446	0.0076
596.5357	0.0117
596.7267	0.0043
596.9177	0.0009
597.1087	0.0011
597.2997	0.0053
597.4907	-0.0019
597.6817	0.0074
597.8726	0.0103
598.0635	-0.0025
598.2544	0.0076
598.4453	0.0072
598.6362	0.0057
598.827	0.0032
599.0179	0.0075
599.2087	0.0069
599.3995	0.0087
599.5903	0.0095
599.7811	0.0075
599.9718	0.0009
600.1626	0.0068
600.3533	0.0023
600.544	0.0078
600.7347	0.0053
600.9254	0.0038
601.116	0.0061
601.3067	0.0027
601.4973	0.0102
601.6879	0.0016
601.8785	0.0004
602.0691	0.0034
602.2596	0.0101
602.4502	0.0063
602.6407	0.0057
602.8312	0.0074
603.0217	0.011
603.2122	0.0023
603.4027	0.0066
603.5931	-0.0043
603.7835	0.0052
603.9739	0.0046
604.1643	0.0073
604.3547	0.013
604.5451	0.0096
604.7354	-0.0025
604.9257	-0.0006
605.116	-0.0035
605.3063	0.0051
605.4966	0.0086
605.6869	0.0079
605.8771	0.0064
606.0673	0.0009
606.2575	0.0073
606.4477	0.007
606.6379	0.0052
606.8281	0.0012
607.0182	0.0031
607.2083	0.0066
607.3985	0.0071
607.5885	0.0104
607.7786	0.0056
607.9687	0.0051
608.1587	0.0062
608.3488	0.0077
608.5388	-0.0007
608.7288	-0.0042
608.9187	-0.0019
609.1087	0.0038
609.2986	0.0009
609.4886	0.0023
609.6785	0.0068
609.8684	-0.0005
610.0582	0.0009
610.2481	-0.0008
610.4379	0.0037
610.6278	0.0035
610.8176	0.011
611.0074	0.0069
611.1971	0.0084
611.3869	0.009
611.5766	-0.0043
611.7664	0.0056
611.9561	0.0066
612.1458	0.0036
612.3354	0.0056
612.5251	0.0045
612.7147	0.0102
612.9044	-0.0003
613.094	0.0078
613.2836	0.0038
613.4731	0.0071
613.6627	0.0036
613.8522	0.0077
614.0417	0.0049
614.2313	0.0016
614.4207	0.0119
614.6102	0.0065
614.7997	0.0034
614.9891	0.0048
615.1785	0.0003
615.3679	-0.0032
615.5573	0.0053
615.7467	0.0025
615.9361	0.0031
616.1254	0.008
616.3147	0.0015
616.504	0.0057
616.6933	0.0041
616.8826	0.0121
617.0718	0.0069
617.2611	0.0048
617.4503	0.0026
617.6395	0.0113
617.8287	0.0051
618.0179	0.0127
618.207	0.0113
618.3961	-0.0011
618.5853	0.0054
618.7744	0.0071
618.9634	0.0123
619.1525	0.0039
619.3416	0.0028
619.5306	0.0128
619.7196	0.0158
619.9086	0.0001
620.0976	0.0082
620.2866	0.0069
620.4755	0.0047
620.6645	0.0048
620.8534	0.0144
621.0423	0.0111
621.2312	0.0034
621.42	-0.0001
621.6089	0.0043
621.7977	0.0108
621.9865	0.0071
622.1753	-0.0027
622.3641	-0.0073
622.5529	-0.0037
622.7416	0.0043
622.9303	0.0077
623.1191	0.0062
623.3078	0.0019
623.4964	0.0083
623.6851	0.0033
623.8737	-0.0081
624.0624	-0.0103
624.251	0.002
624.4396	0.0036
624.6282	0.0183
624.8167	0.0036
625.0053	0.0103
625.1938	0.0048
625.3823	-0.0004
625.5708	-0.001
625.7593	-0.0009
625.9477	0.004
626.1362	-0.0002
626.3246	0.0086
626.513	0.0054
626.7014	0.0139
626.8898	0.0123
627.0781	0.0126
627.2665	0.0067
627.4548	-0.0048
627.6431	0.0069
627.8314	0.012
628.0197	0.0025
628.2079	0.0031
628.3962	0.0026
628.5844	0.0038
628.7726	0.0061
628.9608	0.0061
629.1489	0.0084
629.3371	0.0042
629.5252	0.0022
629.7134	-0.0131
629.9015	0.0116
630.0895	0.0023
630.2776	0.0157
630.4657	0.0116
630.6537	0.0117
630.8417	-0.0117
631.0297	-0.0039
631.2177	0.0021
631.4057	0.01
631.5936	-0.0008
631.7815	0.0114
631.9695	0.016
632.1574	0.0129
632.3452	0.0003
632.5331	0.0099
632.7209	0.0096
632.9088	0.0132
633.0966	0.0415
633.2844	0.0095
633.4722	0.021
633.6599	0.0145
633.8477	0.0022
634.0354	0.0245
634.2231	-0.0167
634.4108	-0.0045
634.5985	0.0195
634.7861	0.0038
634.9738	-0.0046
635.1614	0.0117
635.349	0.0137
635.5366	0.0025
635.7242	-0.0028
635.9117	0.0109
636.0993	0.002
636.2868	-0.0031
636.4743	0.0109
636.6618	-0.0063
636.8492	0.015
637.0367	0.0045
637.2241	0.0116
637.4115	0.03
637.5989	-0.0032
637.7863	0.0298
637.9737	0.001
638.161	0.0148
638.3484	-0.0027
638.5357	0.0038
638.723	0.0033
638.9103	-0.0122
639.0975	0.0059
639.2848	0.0191
639.472	0.028
639.6592	-0.0157
639.8464	0.0013
640.0336	-0.0017
640.2208	0.0041
640.4079	-0.024
640.595	0.006
640.7821	0.0071
640.9692	0.0046
641.1563	0.0038
641.3434	0.0082
641.5304	0.0231
641.7174	0.0184
641.9044	0.0065
642.0914	0.0302
642.2784	-0.0073
642.4653	0.0027
642.6523	0.0128
642.8392	0.0002
643.0261	0.0208
643.213	0.0015
643.3999	0.0151
643.5867	0.0206
643.7735	0.0051
643.9604	0.025
644.1472	0.0115
644.3339	-0.0035
644.5207	-0.0106
644.7075	0.0026
644.8942	-0.0014
645.0809	0.0175
645.2676	-0.0147
645.4543	-0.0173
645.6409	0.0122
645.8276	0.0058
646.0142	-0.0135
646.2008	0.0038
646.3874	-0.0077
646.574	-0.029
646.7605	0.027
646.9471	-0.0192
647.1336	-0.026
647.3201	0.0405
647.5066	0.0057
647.6931	0.0088
647.8795	0.0088
648.0659	0.0022
648.2524	0.0226
648.4388	0.0015
648.6252	0.0116
648.8115	-0.0003
648.9979	-0.0037
649.1842	0.0115
649.3705	0.0212
649.5568	-0.0084
649.7431	0.01
649.9294	-0.0104
650.1156	-0.008
650.3018	0.0115
650.488	0.0027
650.6742	0.0056
650.8604	0.0228
651.0466	-0.0015
651.2327	-0.0038
651.4188	0.0105
651.6049	0.0234
651.791	-0.0004
651.9771	0.0316
652.1632	0.003
652.3492	0.0119
652.5352	0.0355
652.7212	-0.0106
652.9072	-0.0103
653.0932	0.0047
653.2791	0.0096
653.465	0.0076
653.651	-0.0027
653.8369	0.0171
654.0227	-0.0109
654.2086	-0.0088
654.3944	0.0081
654.5803	0.0041
654.7661	0.0034
654.9519	-0.0014
655.1377	0
655.3234	0
655.5092	0
655.6949	0
655.8806	0
656.0663	0
656.2519	0
656.4376	0
656.6232	0
656.8088	0
656.9945	0
657.18	0
657.3656	0
657.5511	0
657.7367	0
657.9222	0
658.1077	0
658.2932	0
658.4786	0
658.6641	0
658.8495	0
659.0349	0
659.2203	0
659.4057	0
659.591	0.1562
659.7764	0.0161
659.9617	0.0036
660.147	0.0072
660.3323	0.0103
660.5176	0.0019
660.7028	-0.0164
660.888	0.0041
661.0733	0.0064
661.2585	0.0107
661.4436	0.0071
661.6288	0.0193
661.8139	-0.0126
661.9991	-0.0119
662.1842	-0.0005
662.3693	-0.0008
662.5544	0.0153
662.7394	0.0168
662.9245	0.0063
663.1095	-0.0205
663.2945	-0.0103
663.4795	-0.0137
663.6644	0.0167
663.8494	0.018
664.0343	0.0137
664.2193	-0.0073
664.4042	0.0039
664.589	0.0205
664.7739	0.001
664.9587	-0.0086
665.1436	-0.0049
665.3284	0.0106
665.5132	-0.0243
665.698	0.0246
665.8827	0.0192
666.0675	-0.0146
666.2522	0.0094
666.4369	-0.0062
666.6216	0.0137
666.8063	0.0027
666.9909	-0.0044
667.1756	0.0056
667.3602	-0.0023
667.5448	0.0075
667.7294	0.0369
667.9139	0.0034
668.0985	0.0044
668.283	0.0003
668.4675	0.0161
668.652	0.0071
668.8365	0.0003
669.0209	0.0401
669.2054	0.0086
669.3898	-0.0035
669.5742	0.0455
669.7586	0.0131
669.943	-0.0006
670.1273	0.0115
670.3117	0.0133
670.496	0.0009
670.6803	0.0047
670.8646	-0.0117
671.0488	0.0142
671.2331	-0.0204
671.4173	0.0068
671.6015	0.0155
671.7857	0.0147
671.9699	0.0115
672.1541	0.0012
672.3382	-0.0071
672.5223	0.0025
672.7064	-0.0022
672.8905	0.0002
673.0746	-0.0125
673.2587	0.0232
673.4427	-0.0008
673.6267	0.0098
673.8107	0.0161
673.9947	0.0296
674.1787	0.0113
674.3626	0.0066
674.5465	0.0057
674.7304	0.0055
674.9143	-0.0054
675.0982	0.0052
675.2821	0.024
675.4659	-0.0031
675.6497	0.0237
675.8335	0.0084
676.0173	-0.0082
676.2011	0.013
676.3849	0.008
676.5686	0.0281
676.7523	-0.0013
676.936	0.0009
677.1197	-0.0055
677.3034	0.0397
677.487	-0.0053
677.6706	0.002
677.8542	0.0141
678.0378	0.0178
678.2214	0.0145
678.405	0.0086
678.5885	0.0069
678.772	0.0045
678.9555	-0.0117
679.139	0.0222
679.3225	0.0148
679.5059	-0.0087
679.6894	0.0122
679.8728	0.0024
680.0562	0.006
680.2395	-0.0082
680.4229	-0.0123
680.6062	0.0042
680.7896	-0.0224
680.9729	0.0117
681.1562	0.0072
681.3394	-0.0067
681.5227	0.0169
681.7059	0.0126
681.8891	0.0162
682.0723	-0.0076
682.2555	-0.0086
682.4387	0.0071
682.6218	0.0038
682.805	0.0187
682.9881	0.0239
683.1712	-0.0005
683.3542	0.0071
683.5373	0.0028
683.7203	0.0071
683.9034	-0.0079
684.0864	-0.0019
684.2694	0.007
684.4523	0.0086
684.6353	0.0002
684.8182	-0.0089
685.0011	0.0153
685.184	0.007
685.3669	0.0247
685.5498	0.0009
685.7326	0.0072
685.9154	-0.0006
686.0982	0.0004
686.281	0.0108
686.4638	0.016
686.6465	0.0106
686.8293	-0.0226
687.012	-0
687.1947	0.0074
687.3774	0.0091
687.56	-0.0063
687.7427	0.0013
687.9253	-0.0087
688.1079	0.0065
688.2905	-0.0048
688.4731	0.0169
688.6556	-0.007
688.8382	-0.025
689.0207	0.0106
689.2032	0.0212
689.3857	0.0037
689.5681	-0.0028
689.7506	0.0256
689.933	-0.0107
690.1154	0.0293
690.2978	-0.0011
690.4802	0.0113
690.6626	0.0175
690.8449	-0.0073
691.0272	0.0054
691.2095	-0.0119
691.3918	0.0155
691.5741	0.0074
691.7563	0.0071
691.9386	0.0168
692.1208	0.0286
692.303	0.0025
692.4852	0.005
692.6673	0.0004
692.8495	-0.0099
693.0316	-0.006
693.2137	-0.0048
693.3958	0.004
693.5778	-0.0009
693.7599	0.0093
693.9419	-0.0042
694.1239	0.0093
694.3059	0.0156
694.4879	0.0072
694.6699	0.0031
694.8518	0.0248
695.0337	0.0216
695.2157	0.033
695.3975	0.0051
695.5794	-0.0189
695.7613	0.0223
695.9431	-0.0268
696.1249	0.0301
696.3067	-0.0026
696.4885	0.0182
696.6703	0.0218
696.852	-0.0106
697.0337	0.0147
697.2154	0.016
697.3971	0.0116
697.5788	0.0106
697.7605	-0.0286
697.9421	0.0069
698.1237	0.0148
698.3053	-0.0035
698.4869	0.0102
698.6685	-0.0104
698.85	0.0019
699.0315	0.005
699.213	0.0251
699.3945	0.0023
699.576	0.0162
699.7575	0.0058
699.9389	-0.0089
700.1203	0.0137
700.3017	0.0039
700.4831	0.0129
700.6645	0.0137
700.8458	0.0116
701.0271	0.048
701.2084	0.011
701.3897	0.0221
701.571	0.0095
701.7523	-0.0038
701.9335	0.0275
702.1147	0.0357
702.2959	-0.0028
702.4771	-0.008
702.6583	-0.0128
702.8394	-0.0208
703.0205	0.0137
703.2016	-0.0093
703.3827	-0.0192
703.5638	-0.0083
703.7449	0.0095
703.9259	0.0011
704.1069	-0.0145
704.2879	0.0067
704.4689	0.007
704.6499	0.0096
704.8308	0.0131
705.0117	0.0306
705.1927	0.0311
705.3735	0.0038
705.5544	0.0031
705.7353	-0.0042
705.9161	-0.0396
706.0969	-0.0032
706.2777	0.0136
706.4585	0.0096
706.6393	0.0136
706.82	0.0108
707.0007	0.0011
707.1815	-0.0184
707.3621	0.0282
707.5428	0.0231
707.7235	0.0166
707.9041	0.0208
708.0847	0.0086
708.2653	0.0292
708.4459	-0.0036
708.6265	-0.0047
708.807	-0.0089
708.9875	-0.0133
709.168	-0.0136
709.3485	0.0037
709.529	0.0151
709.7095	0.002
709.8899	-0.0039
710.0703	0.0252
710.2507	-0.0037
710.4311	-0.0027
710.6115	0.0225
710.7918	0.0123
710.9721	0.017
711.1524	-0.0088
711.3327	-0.0036
711.513	-0.0111
711.6932	-0.0038
711.8735	0.0141
712.0537	-0.0231
712.2339	0.0198
712.4141	0.031
712.5942	-0.0029
712.7744	0.0161
712.9545	0.007
713.1346	0.0161
713.3147	0.0085
713.4947	0.0044
713.6748	0.001
713.8548	0.0085
714.0348	0.0141
714.2148	0.0226
714.3948	0.0083
714.5748	0.0217
714.7547	-0.0075
714.9346	0.0161
715.1145	-0.0105
715.2944	-0.0277
715.4743	0.0057
715.6541	-0.0068
715.834	0.0145
716.0138	-0.0034
716.1936	-0.0085
716.3733	-0.0109
716.5531	0.0114
716.7328	-0.0118
716.9126	-0.0075
717.0923	-0.0123
717.2719	0.005
717.4516	-0.0036
717.6312	-0.0036
717.8109	0.0337
717.9905	0.0074
718.1701	0.0141
718.3496	-0.0063
718.5292	-0.0126
718.7087	-0.0082
718.8882	0.0225
719.0677	0.0202
719.2472	-0.017
719.4267	0.0056
719.6061	0.0021
719.7856	0.041
719.965	-0.0055
720.1443	-0.0028
720.3237	-0.014
720.5031	-0.0072
720.6824	-0.0046
720.8617	-0.0075
721.041	0.0294
721.2203	-0.0163
721.3995	-0.005
721.5788	-0.0234
721.758	0.0191
721.9372	-0.01
722.1164	0.0025
722.2956	-0.0079
722.4747	0.0393
722.6538	-0.0211
722.8329	0.0265
723.012	0.0125
723.1911	-0.003
723.3702	0.0241
723.5492	0.0077
723.7282	-0.021
723.9072	-0.008
724.0862	-0.0014
724.2652	0.0008
724.4441	0.0078
724.623	0.0137
724.8019	-0.0165
724.9808	0.0128
725.1597	0.0075
725.3385	-0.0146
725.5174	0.0204
725.6962	0.0177
725.875	0.0083
726.0538	0.0007
726.2325	0.006
726.4112	-0.019
726.59	-0.0114
726.7687	-0.0261
726.9474	0.0258
727.126	0.0088
727.3047	0.0047
727.4833	0.0208
727.6619	-0.0057
727.8405	-0.0085
728.0191	0.0263
728.1976	0.0296
728.3762	-0.0047
728.5547	-0.0101
728.7332	0.0321
728.9116	0.0078
729.0901	-0.02
729.2686	-0.0025
729.447	-0.0104
729.6254	-0.0038
729.8038	0.0212
729.9821	-0.0209
730.1605	0.0095
730.3388	0.0016
730.5171	0.0214
730.6954	-0.0204
730.8737	0.0065
731.0519	-0.0031
731.2302	0.0026
731.4084	-0.0052
731.5866	-0.0154
731.7648	-0.003
731.9429	0.018
732.1211	0.0012
732.2992	-0.0189
732.4773	0.0025
732.6554	-0.0062
732.8335	0.0342
733.0115	0.009
733.1896	-0.0366
733.3676	0.0253
733.5456	0.005
733.7235	0.0002
733.9015	0.0213
734.0794	-0.0066
734.2574	-0.0278
734.4353	0.0255
734.6131	-0.0009
734.791	0.0068
734.9689	0.0045
735.1467	0.0126
735.3245	0.0183
735.5023	-0.0051
735.68	-0.0231
735.8578	0.0111
736.0355	0.0215
736.2132	0.0295
736.3909	0.0265
736.5686	-0.0019
736.7463	-0.0119
736.9239	0.0112
737.1015	0.0131
737.2791	0.0119
737.4567	0.0166
737.6343	-0.0025
737.8118	0.0276
737.9894	0.0252
738.1669	0.0111
738.3444	0.043
738.5218	0.0008
738.6993	0.0059
738.8767	0.0063
739.0541	-0.0057
739.2315	0.0211
739.4089	0.033
739.5863	-0.001
739.7636	-0.0018
739.9409	0.022
740.1182	-0.0077
740.2955	0.036
740.4728	-0.0354
740.65	-0.0174
740.8272	0.0211
741.0044	-0.0257
741.1816	0.0397
741.3588	-0.0333
741.5359	-0.008
741.7131	-0.0036
741.8902	-0.0234
742.0673	-0.0094
742.2444	0.0324
742.4214	0.0084
742.5985	-0.0091
742.7755	-0.0107
742.9525	-0.0443
743.1295	-0.0005
743.3064	-0.0068
743.4834	-0.0015
743.6603	0.0357
743.8372	-0.0073
744.0141	0.0155
744.191	-0.0116
744.3678	-0.0054
744.5446	-0.0103
744.7215	-0.0071
744.8982	0.0064
745.075	0.052
745.2518	-0.005
745.4285	0.038
745.6052	-0.0313
745.7819	0.0051
745.9586	-0.0027
746.1353	0.0139
746.3119	0.0014
746.4885	0.0519
746.6651	0.0193
746.8417	-0.0372
747.0183	0.0571
747.1948	0.0185
747.3714	0.009
747.5479	0.0071
747.7244	-0.0139
747.9008	-0.0207
748.0773	0.0353
748.2537	0.0077
748.4301	0.0118
748.6065	-0.043
748.7829	-0.0091
748.9593	-0.0053
749.1356	0.0062
749.3119	0.0116
749.4882	0.0207
749.6645	-0.0075
749.8408	0.0134
750.017	0.0043
750.1933	-0.0157
750.3695	0.0265
750.5457	-0.0014
750.7218	0.0051
750.898	-0.0097
751.0741	0.0029
751.2502	0.0118
751.4263	0.0197
751.6024	0.0165
751.7784	-0.0285
751.9545	0.0215
752.1305	0.0209
752.3065	-0.0012
752.4825	0.0175
752.6584	0.0074
752.8344	0.0018
753.0103	-0.0117
753.1862	0.0016
753.3621	0.0173
753.5379	0.0033
753.7138	0.0078
753.8896	-0.0084
754.0654	0.013
754.2412	0.0091
754.417	0.0367
754.5927	0.0173
754.7685	0.0054
754.9442	0.0042
755.1199	-0.0032
755.2956	0.0021
755.4712	0.0245
755.6469	-0.0083
755.8225	0.0279
755.9981	0.0002
756.1736	0.0114
756.3492	0.0017
756.5248	0.0199
756.7003	-0.0024
756.8758	0.0071
757.0513	0.0153
757.2267	0.005
757.4022	0.004
757.5776	0.0136
757.753	0.0181
757.9284	-0
758.1038	0.0067
758.2791	0.0072
758.4545	-0.008
758.6298	0.0108
758.8051	0.008
758.9803	0.0096
759.1556	0.0146
759.3308	-0.0043
759.506	0.0042
759.6812	0.0015
759.8564	-0.0025
760.0316	-0.0081
760.2067	0.0325
760.3819	0.0012
760.557	-0.0021
760.732	0.0034
760.9071	-0.0038
761.0821	-0.0181
761.2572	0.0005
761.4322	0.0015
761.6072	-0.0114
761.7821	-0.0291
761.9571	0.0116
762.132	0.0038
762.3069	0.0025
762.4818	-0.0154
762.6567	0.0062
762.8316	0.0123
763.0064	0.0135
763.1812	0.0063
763.356	-0.0152
763.5308	0.0112
763.7055	-0.008
763.8803	0.0125
764.055	-0.0068
764.2297	-0.0114
764.4044	-0.0046
764.579	-0.0071
764.7537	-0.0031
764.9283	0.0121
765.1029	0.0192
765.2775	0.0346
765.4521	0.0157
765.6266	-0.0006
765.8011	0.0137
765.9756	0.0143
766.1501	-0.0104
766.3246	0.0138
766.4991	0.0019
766.6735	0.0522
766.8479	-0.0032
767.0223	0.011
767.1967	0.0068
767.371	0.0136
767.5454	0.0118
767.7197	0.0313
767.894	-0.0012
768.0683	0.0161
768.2425	0.0063
768.4168	0.0084
768.591	0.006
768.7652	0.0019
768.9394	-0.0224
769.1135	-0.0026
769.2877	-0.0029
769.4618	0.0111
769.6359	0.0122
769.81	0.0292
769.984	-0.0008
770.1581	0.0164
770.3321	0.0083
770.5061	0.0068
770.6801	0.0091
770.8541	-0.0017
771.028	0.0336
771.202	0.0286
771.3759	0.0337
771.5498	0.005
771.7236	-0.0036
771.8975	0.0205
772.0713	0.012
772.2451	0.0004
772.4189	0.0158
772.5927	-0.0279
772.7665	0.009
772.9402	0.0073
773.1139	-0.0147
773.2876	0.0088
773.4613	0.0149
773.635	0.0155
773.8086	0.0033
773.9822	-0.0078
774.1558	0.0116
774.3294	0.0324
774.503	-0.0314
774.6765	0.0339
774.8501	-0.0342
775.0236	-0.0077
775.1971	0.0155
775.3705	0.033
775.544	-0.026
775.7174	0.026
775.8908	-0.013
776.0642	0.0236
776.2376	0.0812
776.4109	-0.0194
776.5843	-0.0223
776.7576	0.0111
776.9309	0.0626
777.1041	0.0026
777.2774	0.0246
777.4506	-0.0599
777.6238	-0.0096
777.797	0.0085
777.9702	0.0242
778.1434	0.0157
778.3165	-0.0604
778.4896	-0.0241
778.6627	0.0144
778.8358	-0.0308
779.0089	-0.0662
779.1819	0.0152
779.3549	-0.0137
779.5279	-0.0326
779.7009	0.0241
779.8739	0.075
780.0468	0.0021
780.2197	0.0033
780.3926	-0.0059
780.5655	0.0075
780.7384	0.002
780.9112	0.0056
781.0841	0.0291
781.2569	-0.0054
781.4297	-0.0148
781.6024	0.0282
781.7752	0.053
781.9479	0.0744
782.1206	0.0172
782.2933	0.0045
782.466	0.028
782.6386	0.004
782.8113	0.0135
782.9839	0.0179
783.1565	0.0145
783.329	-0.0291
783.5016	-0.0012
783.6741	-0.0374
783.8466	0.0441
784.0191	-0.0102
784.1916	0.0071
784.3641	-0.0352
784.5365	0.0414
784.7089	-0.0368
784.8813	0.0571
785.0537	0.0231
785.2261	-0.0117
785.3984	0.0069
785.5707	-0.0008
785.743	0.0127
785.9153	0.0204
786.0876	-0.0216
786.2598	0.0022
786.432	0.0323
786.6042	0.0405
786.7764	-0.0367
786.9486	-0.0447
787.1207	0.0125
787.2928	0.0313
787.4649	-0.0033
787.637	-0.0053
787.8091	-0.0047
787.9811	0.0077
788.1532	0.0199
788.3252	0.0129
788.4972	0.0202
788.6691	0.0308
788.8411	0.0072
789.013	0.0031
789.1849	0.01
789.3568	0.0023
789.5287	0.0074
789.7005	-0.0204
789.8723	-0.0317
790.0442	-0.0445
790.2159	-0.0489
790.3877	0.0797
790.5595	0.0256
790.7312	-0.0206
790.9029	-0.0172
791.0746	0.0427
791.2463	-0.0863
791.4179	0.0084
791.5896	0.0326
791.7612	0.0691
791.9328	0.0177
792.1044	0.0467
792.2759	-0.0655
792.4474	0.0337
792.619	-0.0211
792.7905	0.0404
792.9619	0.0041
793.1334	0.0099
793.3048	0.0384
793.4762	0.0377
793.6476	-0.0458
793.819	-0.0053
793.9904	-0.0043
794.1617	-0.0207
794.333	0.0177
794.5043	0.0187
794.6756	0.0128
794.8469	-0.0115
795.0181	-0.0075
795.1893	0.0557
795.3605	0.0055
795.5317	0.0104
795.7029	0.0127
795.874	0.0288
796.0452	0.0315
796.2163	0.082
796.3873	0.0362
796.5584	0.0846
796.7294	0.0135
796.9005	0.0494
797.0715	0.0176
797.2425	0.0185
797.4134	0.048
797.5844	-0.0038
797.7553	-0.0796
797.9262	0.0755
798.0971	0.0267
798.2679	0.0248
798.4388	-0.0012
798.6096	-0.0342
798.7804	0.1278
798.9512	0.1093
799.122	0.0116
799.2927	0.0305
799.4635	-0.0686
799.6342	-0.0152
799.8049	0.0099
799.9755	-0.0731
800.1462	0.055
800.3168	0.0821
800.4874	-0.1208
800.658	-0.0214
800.8286	0.0156
800.9991	0.0826
801.1696	-0.0073
801.3402	-0.0178
801.5106	-0.0002
801.6811	-0.0359
801.8516	0.0709
802.022	-0.0002
802.1924	-0.0621
802.3628	0.0158
802.5332	0.008
802.7035	0.093
802.8739	0.0448
803.0442	-0.0112
803.2145	0.0268
803.3847	0.049
803.555	-0.0142
803.7252	-0.0107
803.8954	-0.057
804.0656	-0.0265
804.2358	0.0439
804.4059	0.1143
804.5761	0.0231
804.7462	-0.0428
804.9163	-0.0696
805.0864	-0.007
805.2564	-0.065
805.4264	-0.0115
805.5965	0.0396
805.7665	-0.0047
805.9364	0.0189
806.1064	-0.0381
806.2763	0.0085
806.4462	-0.0019
806.6161	0.0298
806.786	-0.0356
806.9559	0.0019
807.1257	0.0112
807.2955	-0.0177
807.4653	-0.0267
807.6351	-0.0215
807.8048	0.0339
807.9746	0.0099
808.1443	-0.0015
808.314	0.0586
808.4837	0.07
808.6533	0.0861
808.8229	0.0513
808.9926	0.0251
809.1622	0.0046
809.3317	-0.0871
809.5013	-0.0233
809.6708	0.0273
809.8403	0.0031
810.0098	-0.0392
810.1793	0.0147
810.3488	0.0401
810.5182	0.0672
810.6876	-0.0059
810.857	0.0065
811.0264	-0.0698
811.1958	0.1027
811.3651	-0.0406
811.5344	0.1409
811.7037	0.0543
811.873	0.0805
812.0422	-0.1083
812.2115	0.0569
812.3807	-0.0376
812.5499	0.0237
812.7191	-0.0728
812.8882	-0.0879
813.0574	0.0211
813.2265	-0.0563
813.3956	0.0019
813.5646	-0.0069
813.7337	0.0053
813.9027	-0.028
814.0718	0.0041
814.2407	0.132
814.4097	0.0211
814.5787	0.0671
814.7476	0.0557
814.9165	-0.0237
815.0854	-0.0077
815.2543	0.0993
815.4232	0.096
815.592	0.0126
815.7608	-0.0811
815.9296	0.0054
816.0984	0.1067
816.2671	-0.1999
816.4359	0.0741
816.6046	-0.0409
816.7733	-0.0926
816.942	-0.0311
817.1106	0.0021
817.2793	-0.0791
817.4479	0.0141
817.6165	0.043
817.785	0.1334
817.9536	-0.0458
818.1221	0.0618
818.2906	-0.1272
818.4591	0.0936
818.6276	0.0572
818.7961	-0.0034
818.9645	-0.0273
819.1329	-0.0248
819.3013	-0.0426
819.4697	-0.0845
819.638	0.3349
819.8064	0.0233
819.9747	-0.0861
820.143	-0.0731
820.3113	0.0322
820.4795	0.0673
820.6477	0.1728
820.816	0.0576
820.9842	0.2508
821.1523	0.036
821.3205	-0.0238
821.4886	-0.0123
821.6567	-0.0791
821.8248	0.056
821.9929	-0.1676
822.1609	-0.117
822.329	0.0027
822.497	-0.0241
822.665	0.0696
822.833	-0.0664
823.0009	-0.0141
823.1688	0.1558
823.3367	-0.1603
823.5046	0.0579
823.6725	-0.1601
823.8404	0.0898
824.0082	-0.0405
824.176	-0.0523
824.3438	0.1351
824.5116	-0.0844
824.6793	0.1072
824.847	-0.0848
825.0147	0.1631
825.1824	0.0206
825.3501	0.0761
825.5177	0.1013
825.6854	-0.2138
825.853	-0.0619
826.0206	0.0106
826.1881	0.0662
826.3557	0.1168
826.5232	0.1207
826.6907	0.0315
826.8582	0.2029
827.0257	0.1797
827.1931	0.1159
827.3605	0.0791
827.528	-0.2322
827.6953	-0.2789
827.8627	-0.0542
828.03	0.0501
828.1974	-0.0199
828.3647	-0.0723
828.532	-0.0191
828.6992	0.1423
828.8665	-0.1821
829.0337	-0.0533
829.2009	0.0076
829.3681	0.0836
829.5352	-0.2772
829.7024	-0.0258
829.8695	0.0035
830.0366	0.125
830.2037	0.019
830.3707	0.1323
830.5378	-0.1716
830.7048	0.0435
830.8718	-0.0296
831.0388	0.1359
831.2057	0.7646
831.3727	-0.4247
831.5396	0.1838
831.7065	-1.0047
831.8734	0.0386
832.0402	0.0092
832.2071	0.1792
832.3739	-0.2423
832.5407	-1.4004
832.7075	-0.319
832.8742	0.466
833.041	-0.0598
833.2077	0.7311
833.3744	0.1051
833.541	0.0592
833.7077	-0.0364
833.8743	0.114
834.0409	0.0315
834.2075	0.0374
834.3741	-0.2386
834.5407	-0.1464
834.7072	0.1237
834.8737	0.2113
835.0402	0.372
835.2067	-0.0953
835.3731	-0.0653
835.5395	0.0383
835.706	-0.1608
835.8723	-0.2592
836.0387	0.1925
836.2051	0.6621
836.3714	0.2391
836.5377	0.041
836.704	0.0088
836.8703	-0.1776
837.0365	-0.7984
837.2027	-0.0007
837.3689	0.1494
837.5351	-0.1209
837.7013	-0.1364
837.8674	-0.1545
838.0335	0.0319
838.1997	0.1829
838.3657	-0
838.5318	-0.52
838.6978	0.4185
838.8639	-0.4686
839.0299	0.1534
839.1958	0.0184
839.3618	-0.3109
839.5277	-0.0705
839.6937	0.3718
839.8596	-0.2763
840.0254	0.0724
840.1913	-0.3226
840.3571	-0.1577
840.523	-0
840.6888	-0.1087
840.8545	-0.5658
841.0203	0.5562
841.186	0.1693
841.3517	-0.1871
841.5174	0.0995
841.6831	-0.0439
841.8488	0.4654
842.0144	0.8253
842.18	0.4524
842.3456	-0.4274
842.5112	-0
842.6767	-0.048
842.8422	0.5724
843.0077	0.0204
843.1732	-0.408
843.3387	-0.063
843.5042	-0
843.6696	-0.3478
843.835	-0.2979
844.0004	-0.22
844.1657	-0
844.3311	-0.0545
844.4964	-0.1333
844.6617	0.1251
844.827	0.2735
844.9923	-0.0052
845.1575	0.2022
845.3227	-0.4898
845.4879	0.2243
845.6531	0.079
845.8183	0.0577
845.9834	0.3607
846.1485	0.3699
846.3136	-0.2803
846.4787	-0
846.6438	0.0407
846.8088	0.3922
846.9738	-0.6541
847.1388	0.3918
847.3038	0.2623
847.4687	2.2129
847.6337	1.2007
847.7986	0.0595
847.9635	0.0099
848.1284	0.4153
848.2932	-0.0724
848.458	-0
848.6228	-0.0127
848.7876	-0
848.9524	-0.5071
849.1172	-1.6915
849.2819	-0.9031
849.4466	0.3025
849.6113	0.5072
849.7759	-0
849.9406	-0.0654
850.1052	-1.4504
850.2698	1.116
850.4344	-0.5775
850.599	0.3331
850.7635	0.2621
850.928	0.4414
851.0925	0.7099
851.257	-0.0743
851.4215	-0.2277
851.5859	-0.0881
851.7503	-0
851.9147	0.2793
852.0791	-0.1264
852.2434	0.1734
852.4078	-0
852.5721	0.3837
852.7364	-0.1108
852.9007	-0.2669
853.0649	0.4023
853.2291	0.7304
853.3934	-0
853.5575	-0.2151
853.7217	0.2398
853.8859	0.2007
854.05	-0.2416
854.2141	0.1878
854.3782	-0.0643
854.5423	-0
854.7063	-0.1748
854.8703	-0.1623
855.0343	0.1517
855.1983	0.1843
855.3623	0.0164
855.5262	-0
855.6901	0.2564
855.854	0.1886
856.0179	-0.0866
856.1818	0.6211
856.3456	1.2322
856.5094	-0.3135
856.6732	-0.6169
856.837	-1.0298
857.0008	-0
857.1645	-0
857.3282	-0.6468
857.4919	1.319
857.6556	-0.0907
857.8192	-0.3599
857.9828	-0.1592
858.1465	-0.0381
858.31	-0
858.4736	-0.6927
858.6372	-0.0667
858.8007	-0.3343
858.9642	0.4525
859.1277	1.2947
859.2911	-0.6441
859.4546	-0
859.618	-0.0319
859.7814	-0
859.9448	1.3958
860.1081	-0.276
860.2715	-1.9473
860.4348	0.2109
860.5981	-0
860.7614	-0
860.9246	-0.2348
861.0879	-0
861.2511	-0
861.4143	-0.1627
861.5774	-0
861.7406	0.7698
861.9037	-0
862.0668	-0.9586
862.2299	-0
862.393	0.5785
862.556	0.6379
862.7191	-0.4946
862.8821	0.3457
863.0451	0.0609
863.208	-0
863.371	-0.6423
863.5339	0.3056
863.6968	0.4727
863.8597	-0
864.0225	0.3757
864.1854	-0.1627
864.3482	0.1903
864.511	-0.1211
864.6737	-0.0854
864.8365	-0.0262
864.9992	0.0664
865.1619	-0.6687
865.3246	-1.4713
865.4873	-0.1054
865.65	0.4312
865.8126	1.6891
865.9752	0.1688
866.1378	-0.0692
866.3004	-0.2035
866.4629	-1.8539
866.6254	-0.7601
866.7879	0.0917
866.9504	1.4949
867.1129	-0.3228
867.2753	-0.1481
867.4377	-0.0711
867.6001	-0.1998
867.7625	-0.1782
867.9249	-0.0556
868.0872	0.7028
868.2495	-0
868.4118	-0
868.5741	-0.2327
868.7363	-0
868.8986	-0.0891
869.0608	-0
869.223	-0.7162
869.3851	-0
869.5473	-0.0717
869.7094	-0
869.8715	-1.0217
870.0336	0.0219
870.1957	-0
870.3577	0.0152
870.5197	0.4837
870.6817	-0.9349
870.8437	-0.0513
871.0057	0.4837
871.1676	0.2601
871.3295	-0
871.4914	-0
871.6533	0.2068
871.8151	1.0913
871.977	-0
872.1388	-0
872.3006	-0.5692
872.4623	-0.5369
872.6241	-0.0117
872.7858	0.0435
872.9475	-0
873.1092	0.1183
873.2709	-0
873.4325	-1.7207
873.5941	-0
873.7557	-0
873.9173	0.0789
874.0789	0.2406
874.2404	-0
874.4019	0.3267
874.5634	-0
874.7249	1.6471
874.8863	-0
875.0478	-0.2977
875.2092	1.0772
875.3706	0.1305
875.5319	-0
875.6933	-0.1238
875.8546	-0.0025
876.0159	0.2386
876.1772	0.7597
876.3385	0.1419
876.4997	1.0735
876.6609	-0
876.8221	-0
876.9833	0.6236
877.1445	0.6017
877.3056	-0.5731
877.4667	0.4087
877.6278	-0.0498
877.7889	-0.2966
877.9499	-0
878.111	-0.3084
878.272	-0.1431
878.433	-0
878.5939	0.288
878.7549	-0.2353
878.9158	0.1744
879.0767	1.2446
879.2376	-0.236
879.3984	0.4525
879.5593	0.2963
879.7201	-1.676
879.8809	-0.4399
880.0417	0.1824
880.2024	0.7396
880.3632	-0
880.5239	-0
880.6846	-0
880.8452	-0.0817
881.0059	-0
881.1665	-0
881.3271	0.535
881.4877	0.0454
881.6483	-0
881.8088	-0
881.9693	0.6284
882.1298	0.6284
882.2903	0.6284
