Data from D4ACN5uM440nmA_Absorbance_13-50-25-238.txt Node
Date: Fri Feb 21 13:50:25 GMT 2025
User: LASERRRRR
Spectrometer: FLMT03099
Trigger mode: 0
Integration Time (sec): 1.500000E-2
Scans to average: 1
Electric dark correction enabled: true
Nonlinearity correction enabled: false
Boxcar width: 0
XAxis mode: Wavelengths
Number of Pixels in Spectrum: 3648
>>>>>Begin Spectral Data<<<<<
179.3399	-0.7158
179.5586	-0.7158
179.7771	-0.7158
179.9957	-0.0385
180.2143	-0
180.4329	0.1689
180.6514	-0
180.8699	0.0438
181.0885	-0.0955
181.307	1.3244
181.5255	0.4158
181.744	-0.5456
181.9625	-0
182.181	-0
182.3994	-0.429
182.6179	-0.4341
182.8363	-0.0536
183.0547	-0
183.2732	0.2149
183.4916	0.1379
183.71	0.5302
183.9284	-0.0735
184.1467	-0.0531
184.3651	0.1978
184.5835	0.4688
184.8018	0.0878
185.0201	0.196
185.2385	0.3802
185.4568	0.0309
185.6751	0.1446
185.8934	0.3702
186.1117	-0.1362
186.3299	0.0613
186.5482	0.2433
186.7664	0.3486
186.9847	-0.2003
187.2029	0.3835
187.4211	0.206
187.6393	0.3197
187.8575	0.4821
188.0757	0.411
188.2939	0.2562
188.512	0.5444
188.7302	0.2609
188.9483	0.2199
189.1665	0.7669
189.3846	0.351
189.6027	0.1654
189.8208	0.3547
190.0389	0.3596
190.257	0.0625
190.475	0.054
190.6931	0.0006
190.9111	0.0135
191.1292	0.2044
191.3472	0.1748
191.5652	0.1195
191.7832	0.1374
192.0012	0.3234
192.2192	0.1243
192.4371	0.1665
192.6551	0.2287
192.873	0.1769
193.091	0.0952
193.3089	0.1942
193.5268	0.2111
193.7447	0.1174
193.9626	0.2963
194.1805	0.2806
194.3984	0.3209
194.6162	0.2201
194.8341	0.3635
195.0519	0.2827
195.2697	0.2344
195.4875	0.3028
195.7054	0.2948
195.9231	0.29
196.1409	0.3594
196.3587	0.3213
196.5765	0.3938
196.7942	0.2563
197.012	0.4017
197.2297	0.3282
197.4474	0.4767
197.6651	0.3028
197.8828	0.3891
198.1005	0.4767
198.3182	0.3896
198.5358	0.3872
198.7535	0.3967
198.9711	0.3844
199.1888	0.3303
199.4064	0.3489
199.624	0.4215
199.8416	0.3495
200.0592	0.3838
200.2767	0.3677
200.4943	0.4486
200.7119	0.3572
200.9294	0.43
201.1469	0.4138
201.3645	0.4493
201.582	0.4098
201.7995	0.4173
202.017	0.4283
202.2344	0.4307
202.4519	0.4165
202.6694	0.4208
202.8868	0.4193
203.1042	0.4252
203.3217	0.4032
203.5391	0.3956
203.7565	0.3459
203.9739	0.3837
204.1913	0.3836
204.4086	0.4023
204.626	0.3844
204.8433	0.3447
205.0607	0.3672
205.278	0.3523
205.4953	0.3384
205.7126	0.3343
205.9299	0.3278
206.1472	0.3225
206.3644	0.3366
206.5817	0.3311
206.7989	0.3475
207.0162	0.3128
207.2334	0.2767
207.4506	0.3222
207.6678	0.3132
207.885	0.292
208.1022	0.3054
208.3194	0.292
208.5365	0.2835
208.7537	0.2814
208.9708	0.3113
209.1879	0.2809
209.405	0.285
209.6222	0.2629
209.8392	0.3148
210.0563	0.2826
210.2734	0.2658
210.4905	0.2709
210.7075	0.2734
210.9245	0.2793
211.1416	0.2743
211.3586	0.2998
211.5756	0.2432
211.7926	0.2733
212.0096	0.2921
212.2265	0.2615
212.4435	0.2589
212.6604	0.2657
212.8774	0.2591
213.0943	0.2509
213.3112	0.2634
213.5281	0.2409
213.745	0.2234
213.9619	0.2563
214.1788	0.2662
214.3956	0.2561
214.6125	0.249
214.8293	0.2496
215.0461	0.248
215.2629	0.2603
215.4798	0.252
215.6965	0.2512
215.9133	0.2334
216.1301	0.2449
216.3469	0.2432
216.5636	0.2631
216.7803	0.2509
216.9971	0.2559
217.2138	0.2513
217.4305	0.2469
217.6472	0.2545
217.8639	0.2555
218.0805	0.2702
218.2972	0.2521
218.5138	0.2578
218.7305	0.261
218.9471	0.2491
219.1637	0.2779
219.3803	0.255
219.5969	0.2559
219.8135	0.264
220.0301	0.2582
220.2466	0.2668
220.4632	0.2462
220.6797	0.2554
220.8962	0.2523
221.1127	0.2721
221.3292	0.261
221.5457	0.2737
221.7622	0.2714
221.9787	0.2815
222.1951	0.2789
222.4116	0.2695
222.628	0.2966
222.8444	0.2698
223.0608	0.2757
223.2772	0.2928
223.4936	0.2799
223.71	0.2848
223.9264	0.2867
224.1427	0.2912
224.3591	0.2872
224.5754	0.2798
224.7917	0.2887
225.008	0.2934
225.2243	0.3177
225.4406	0.2844
225.6569	0.3147
225.8732	0.3117
226.0894	0.3109
226.3057	0.3115
226.5219	0.3065
226.7381	0.3178
226.9543	0.3078
227.1705	0.322
227.3867	0.3334
227.6029	0.3291
227.8191	0.3343
228.0352	0.342
228.2513	0.3509
228.4675	0.3393
228.6836	0.3503
228.8997	0.3435
229.1158	0.3531
229.3319	0.3592
229.548	0.3621
229.764	0.3572
229.9801	0.3744
230.1961	0.3764
230.4121	0.3731
230.6282	0.3733
230.8442	0.3899
231.0602	0.3914
231.2761	0.3865
231.4921	0.394
231.7081	0.3946
231.924	0.4042
232.14	0.4057
232.3559	0.4071
232.5718	0.4089
232.7877	0.4053
233.0036	0.4124
233.2195	0.4094
233.4353	0.4226
233.6512	0.4106
233.867	0.4234
234.0829	0.4313
234.2987	0.4242
234.5145	0.4342
234.7303	0.43
234.9461	0.4339
235.1619	0.4436
235.3776	0.4353
235.5934	0.4384
235.8091	0.4375
236.0249	0.4447
236.2406	0.4337
236.4563	0.4466
236.672	0.4437
236.8877	0.4403
237.1034	0.4425
237.319	0.4552
237.5347	0.4499
237.7503	0.4462
237.966	0.4626
238.1816	0.4496
238.3972	0.461
238.6128	0.4713
238.8284	0.4594
239.0439	0.4584
239.2595	0.4601
239.475	0.4539
239.6906	0.4565
239.9061	0.4629
240.1216	0.4637
240.3371	0.4693
240.5526	0.4603
240.7681	0.4555
240.9836	0.4571
241.199	0.4586
241.4145	0.4576
241.6299	0.4555
241.8453	0.4389
242.0607	0.4393
242.2761	0.4375
242.4915	0.4248
242.7069	0.4145
242.9223	0.4243
243.1376	0.4105
243.353	0.3997
243.5683	0.397
243.7836	0.3842
243.9989	0.3752
244.2142	0.3784
244.4295	0.3749
244.6448	0.3692
244.86	0.3547
245.0753	0.3442
245.2905	0.3393
245.5057	0.3363
245.721	0.3317
245.9362	0.3247
246.1514	0.3191
246.3665	0.3091
246.5817	0.2972
246.7969	0.2973
247.012	0.2916
247.2271	0.2912
247.4423	0.289
247.6574	0.2872
247.8725	0.2716
248.0876	0.2697
248.3026	0.2656
248.5177	0.2612
248.7328	0.2458
248.9478	0.2521
249.1628	0.2477
249.3779	0.2392
249.5929	0.2421
249.8079	0.2328
250.0228	0.2359
250.2378	0.2269
250.4528	0.2279
250.6677	0.2268
250.8827	0.213
251.0976	0.2185
251.3125	0.221
251.5274	0.2074
251.7423	0.2104
251.9572	0.2029
252.172	0.2041
252.3869	0.2048
252.6017	0.2055
252.8166	0.1991
253.0314	0.1939
253.2462	0.1977
253.461	0.1989
253.6758	0.197
253.8906	0.1982
254.1053	0.1914
254.3201	0.1875
254.5348	0.1835
254.7496	0.1811
254.9643	0.1879
255.179	0.1887
255.3937	0.1905
255.6083	0.1897
255.823	0.1849
256.0377	0.1801
256.2523	0.1752
256.467	0.1851
256.6816	0.1799
256.8962	0.1854
257.1108	0.1878
257.3254	0.183
257.54	0.18
257.7545	0.1797
257.9691	0.176
258.1836	0.1746
258.3981	0.1773
258.6127	0.1728
258.8272	0.1858
259.0417	0.178
259.2561	0.1753
259.4706	0.1761
259.6851	0.1791
259.8995	0.1764
260.114	0.1822
260.3284	0.1753
260.5428	0.1814
260.7572	0.1724
260.9716	0.1827
261.186	0.1743
261.4003	0.1765
261.6147	0.1758
261.829	0.1793
262.0433	0.1742
262.2577	0.1814
262.472	0.177
262.6863	0.1835
262.9005	0.1757
263.1148	0.1765
263.3291	0.1732
263.5433	0.1784
263.7576	0.1817
263.9718	0.1778
264.186	0.1797
264.4002	0.1818
264.6144	0.1859
264.8286	0.1831
265.0427	0.1804
265.2569	0.1815
265.471	0.1803
265.6851	0.1884
265.8993	0.1774
266.1134	0.1841
266.3275	0.1813
266.5415	0.1859
266.7556	0.1863
266.9697	0.1877
267.1837	0.1785
267.3978	0.1845
267.6118	0.1789
267.8258	0.1866
268.0398	0.1856
268.2538	0.187
268.4677	0.1754
268.6817	0.1765
268.8957	0.1733
269.1096	0.173
269.3235	0.1762
269.5374	0.1725
269.7514	0.17
269.9652	0.1749
270.1791	0.1724
270.393	0.1747
270.6068	0.1764
270.8207	0.1827
271.0345	0.1734
271.2483	0.1693
271.4622	0.1743
271.676	0.1733
271.8897	0.1705
272.1035	0.1743
272.3173	0.1727
272.531	0.1733
272.7448	0.1741
272.9585	0.1629
273.1722	0.1705
273.3859	0.174
273.5996	0.1748
273.8133	0.178
274.0269	0.1702
274.2406	0.1698
274.4542	0.1721
274.6679	0.178
274.8815	0.1836
275.0951	0.1807
275.3087	0.1802
275.5223	0.1756
275.7358	0.177
275.9494	0.1781
276.1629	0.1781
276.3765	0.1795
276.59	0.1725
276.8035	0.1736
277.017	0.1868
277.2305	0.1792
277.444	0.1847
277.6574	0.1843
277.8709	0.1853
278.0843	0.1828
278.2978	0.1921
278.5112	0.179
278.7246	0.1832
278.938	0.1839
279.1513	0.1801
279.3647	0.1835
279.5781	0.1825
279.7914	0.1811
280.0047	0.1777
280.2181	0.1804
280.4314	0.1839
280.6447	0.1864
280.8579	0.1773
281.0712	0.1838
281.2845	0.1837
281.4977	0.1795
281.711	0.1769
281.9242	0.1863
282.1374	0.1817
282.3506	0.184
282.5638	0.1831
282.7769	0.1822
282.9901	0.1765
283.2033	0.1826
283.4164	0.1785
283.6295	0.187
283.8426	0.1781
284.0557	0.19
284.2688	0.1852
284.4819	0.1733
284.695	0.1865
284.908	0.1798
285.1211	0.1798
285.3341	0.1789
285.5471	0.1899
285.7601	0.1856
285.9731	0.1794
286.1861	0.189
286.3991	0.1864
286.612	0.1853
286.825	0.1864
287.0379	0.1895
287.2508	0.1886
287.4637	0.1886
287.6766	0.187
287.8895	0.1869
288.1024	0.1882
288.3152	0.1859
288.5281	0.1955
288.7409	0.1915
288.9538	0.1906
289.1666	0.1918
289.3794	0.1865
289.5922	0.1848
289.8049	0.1921
290.0177	0.1881
290.2304	0.1919
290.4432	0.1977
290.6559	0.1934
290.8686	0.188
291.0813	0.1959
291.294	0.192
291.5067	0.1958
291.7194	0.1939
291.932	0.1917
292.1447	0.1921
292.3573	0.1916
292.5699	0.1936
292.7825	0.1886
292.9951	0.1913
293.2077	0.1872
293.4203	0.194
293.6328	0.1961
293.8454	0.1895
294.0579	0.1872
294.2704	0.1942
294.4829	0.1927
294.6954	0.1853
294.9079	0.1871
295.1204	0.1887
295.3328	0.196
295.5453	0.1945
295.7577	0.1967
295.9701	0.1981
296.1825	0.194
296.3949	0.1885
296.6073	0.1863
296.8197	0.1931
297.0321	0.1907
297.2444	0.1862
297.4567	0.1895
297.6691	0.1955
297.8814	0.1898
298.0937	0.1928
298.306	0.1929
298.5182	0.1953
298.7305	0.1905
298.9428	0.1887
299.155	0.1872
299.3672	0.1908
299.5794	0.1916
299.7916	0.1905
300.0038	0.1936
300.216	0.1892
300.4282	0.1921
300.6403	0.1979
300.8525	0.187
301.0646	0.194
301.2767	0.1911
301.4888	0.1936
301.7009	0.1949
301.913	0.1924
302.125	0.1909
302.3371	0.1909
302.5491	0.1889
302.7612	0.192
302.9732	0.1882
303.1852	0.1917
303.3972	0.1944
303.6092	0.1905
303.8211	0.1889
304.0331	0.1869
304.245	0.186
304.457	0.1889
304.6689	0.1938
304.8808	0.1853
305.0927	0.1831
305.3046	0.1832
305.5164	0.1838
305.7283	0.1849
305.9401	0.1776
306.152	0.1833
306.3638	0.1797
306.5756	0.1796
306.7874	0.1723
306.9992	0.1723
307.2109	0.1733
307.4227	0.1735
307.6344	0.1713
307.8462	0.1671
308.0579	0.1705
308.2696	0.1654
308.4813	0.1664
308.693	0.1628
308.9046	0.1653
309.1163	0.1604
309.328	0.158
309.5396	0.1581
309.7512	0.1519
309.9628	0.1545
310.1744	0.1485
310.386	0.1443
310.5976	0.148
310.8091	0.1557
311.0207	0.1475
311.2322	0.1425
311.4437	0.1461
311.6552	0.1458
311.8667	0.1446
312.0782	0.143
312.2897	0.1379
312.5012	0.1402
312.7126	0.1308
312.924	0.1355
313.1355	0.1339
313.3469	0.1353
313.5583	0.1346
313.7696	0.1347
313.981	0.1384
314.1924	0.1288
314.4037	0.1306
314.6151	0.1294
314.8264	0.1327
315.0377	0.1356
315.249	0.1309
315.4603	0.1307
315.6716	0.1305
315.8828	0.1297
316.0941	0.1316
316.3053	0.1301
316.5165	0.1245
316.7277	0.1184
316.9389	0.1294
317.1501	0.1245
317.3613	0.1235
317.5724	0.1264
317.7836	0.1235
317.9947	0.1233
318.2058	0.1227
318.417	0.1199
318.6281	0.1251
318.8391	0.1273
319.0502	0.1265
319.2613	0.1254
319.4723	0.118
319.6834	0.1245
319.8944	0.1255
320.1054	0.126
320.3164	0.1202
320.5274	0.1243
320.7383	0.1285
320.9493	0.127
321.1602	0.1239
321.3712	0.1182
321.5821	0.1203
321.793	0.1308
322.0039	0.1264
322.2148	0.122
322.4257	0.1168
322.6365	0.121
322.8474	0.1255
323.0582	0.1238
323.269	0.1315
323.4798	0.1247
323.6906	0.1221
323.9014	0.1149
324.1122	0.1209
324.3229	0.1298
324.5337	0.1351
324.7444	0.1249
324.9551	0.1249
325.1658	0.1277
325.3765	0.1304
325.5872	0.1244
325.7979	0.1276
326.0085	0.1269
326.2192	0.1281
326.4298	0.1341
326.6404	0.1355
326.851	0.124
327.0616	0.1347
327.2722	0.13
327.4828	0.1321
327.6933	0.1322
327.9039	0.1347
328.1144	0.1324
328.3249	0.1313
328.5354	0.1303
328.7459	0.1329
328.9564	0.1331
329.1669	0.1343
329.3773	0.1309
329.5878	0.1336
329.7982	0.1363
330.0086	0.1355
330.219	0.1348
330.4294	0.1298
330.6398	0.1361
330.8502	0.1386
331.0605	0.1375
331.2708	0.1314
331.4812	0.1366
331.6915	0.1344
331.9018	0.1337
332.1121	0.1428
332.3224	0.1374
332.5326	0.1323
332.7429	0.1346
332.9531	0.1369
333.1633	0.1276
333.3735	0.1371
333.5837	0.1362
333.7939	0.1405
334.0041	0.1431
334.2143	0.1342
334.4244	0.1459
334.6346	0.1391
334.8447	0.1405
335.0548	0.1399
335.2649	0.1408
335.475	0.1438
335.685	0.1379
335.8951	0.1362
336.1051	0.1441
336.3152	0.1415
336.5252	0.1402
336.7352	0.1365
336.9452	0.1411
337.1552	0.1416
337.3652	0.1354
337.5751	0.1375
337.7851	0.1352
337.995	0.1325
338.2049	0.14
338.4148	0.1382
338.6247	0.1403
338.8346	0.1435
339.0445	0.1388
339.2543	0.1369
339.4642	0.138
339.674	0.1413
339.8838	0.1448
340.0936	0.1481
340.3034	0.1445
340.5132	0.144
340.7229	0.1427
340.9327	0.1442
341.1424	0.1444
341.3522	0.1378
341.5619	0.1472
341.7716	0.1453
341.9813	0.1503
342.1909	0.1477
342.4006	0.1479
342.6102	0.1532
342.8199	0.1455
343.0295	0.1455
343.2391	0.1523
343.4487	0.1537
343.6583	0.1568
343.8679	0.1516
344.0774	0.1518
344.287	0.1509
344.4965	0.1563
344.706	0.1595
344.9155	0.1531
345.125	0.1581
345.3345	0.1632
345.544	0.1578
345.7534	0.1625
345.9629	0.1645
346.1723	0.1629
346.3817	0.1599
346.5911	0.1661
346.8005	0.1593
347.0099	0.1636
347.2193	0.1737
347.4286	0.1729
347.638	0.1632
347.8473	0.1674
348.0566	0.1615
348.2659	0.1665
348.4752	0.169
348.6845	0.1627
348.8937	0.1728
349.103	0.1672
349.3122	0.1649
349.5214	0.1712
349.7306	0.182
349.9398	0.1727
350.149	0.1676
350.3582	0.1719
350.5674	0.1742
350.7765	0.1753
350.9856	0.1689
351.1948	0.1745
351.4039	0.1857
351.613	0.1749
351.822	0.182
352.0311	0.1798
352.2402	0.1785
352.4492	0.1768
352.6582	0.1758
352.8672	0.1833
353.0762	0.1763
353.2852	0.1776
353.4942	0.1809
353.7032	0.1855
353.9121	0.1787
354.1211	0.1787
354.33	0.1827
354.5389	0.1828
354.7478	0.1764
354.9567	0.1856
355.1655	0.1804
355.3744	0.1887
355.5833	0.1813
355.7921	0.1915
356.0009	0.1892
356.2097	0.1803
356.4185	0.1901
356.6273	0.1875
356.8361	0.1895
357.0448	0.1886
357.2536	0.1918
357.4623	0.1915
357.671	0.1868
357.8797	0.1911
358.0884	0.1878
358.2971	0.1937
358.5057	0.1963
358.7144	0.1959
358.923	0.1945
359.1316	0.2008
359.3402	0.2001
359.5488	0.1962
359.7574	0.2019
359.966	0.2
360.1746	0.2001
360.3831	0.2076
360.5916	0.2036
360.8002	0.2105
361.0087	0.1982
361.2172	0.2063
361.4256	0.2123
361.6341	0.2083
361.8426	0.2032
362.051	0.2074
362.2594	0.202
362.4678	0.2118
362.6762	0.2098
362.8846	0.2085
363.093	0.2146
363.3014	0.2192
363.5097	0.2203
363.718	0.2126
363.9264	0.2244
364.1347	0.228
364.343	0.2205
364.5513	0.2192
364.7595	0.2244
364.9678	0.2161
365.176	0.2208
365.3842	0.2335
365.5925	0.2294
365.8007	0.2221
366.0089	0.2258
366.217	0.2329
366.4252	0.227
366.6333	0.2315
366.8415	0.2328
367.0496	0.2288
367.2577	0.2404
367.4658	0.2321
367.6739	0.2369
367.882	0.2332
368.09	0.2289
368.2981	0.2473
368.5061	0.2427
368.7141	0.2315
368.9221	0.2474
369.1301	0.2473
369.3381	0.2417
369.5461	0.2447
369.754	0.2534
369.962	0.2467
370.1699	0.2555
370.3778	0.2562
370.5857	0.2447
370.7936	0.2489
371.0015	0.251
371.2093	0.2429
371.4172	0.2504
371.625	0.2527
371.8328	0.2384
372.0406	0.2607
372.2484	0.2543
372.4562	0.2589
372.664	0.2593
372.8717	0.2608
373.0795	0.2605
373.2872	0.261
373.4949	0.2562
373.7026	0.2623
373.9103	0.2584
374.118	0.2659
374.3256	0.2684
374.5333	0.2601
374.7409	0.2627
374.9485	0.2665
375.1561	0.267
375.3637	0.2615
375.5713	0.2611
375.7789	0.2653
375.9864	0.2665
376.194	0.2744
376.4015	0.2661
376.609	0.2667
376.8165	0.2779
377.024	0.271
377.2315	0.2771
377.4389	0.2551
377.6464	0.2824
377.8538	0.2806
378.0612	0.2792
378.2686	0.2747
378.476	0.286
378.6834	0.2859
378.8908	0.2792
379.0981	0.281
379.3055	0.2773
379.5128	0.274
379.7201	0.2957
379.9274	0.2718
380.1347	0.2849
380.342	0.295
380.5492	0.2928
380.7565	0.2897
380.9637	0.2891
381.1709	0.2823
381.3781	0.2974
381.5853	0.2892
381.7925	0.2846
381.9997	0.2992
382.2068	0.2833
382.4139	0.2873
382.6211	0.3
382.8282	0.2977
383.0353	0.2912
383.2424	0.289
383.4494	0.2905
383.6565	0.2913
383.8635	0.2817
384.0706	0.2986
384.2776	0.2962
384.4846	0.2954
384.6916	0.3
384.8986	0.2996
385.1055	0.3051
385.3125	0.3061
385.5194	0.3071
385.7263	0.2957
385.9333	0.3131
386.1402	0.3011
386.347	0.2852
386.5539	0.3081
386.7608	0.2971
386.9676	0.2957
387.1744	0.3034
387.3813	0.3021
387.5881	0.2861
387.7948	0.307
388.0016	0.3057
388.2084	0.3036
388.4151	0.2961
388.6219	0.2951
388.8286	0.2889
389.0353	0.2915
389.242	0.2984
389.4487	0.2896
389.6553	0.283
389.862	0.2878
390.0686	0.2931
390.2753	0.2901
390.4819	0.29
390.6885	0.2897
390.8951	0.2913
391.1016	0.2857
391.3082	0.2941
391.5147	0.2878
391.7213	0.2883
391.9278	0.2884
392.1343	0.2886
392.3408	0.285
392.5473	0.2872
392.7537	0.2783
392.9602	0.2732
393.1666	0.2756
393.373	0.268
393.5794	0.2806
393.7858	0.2706
393.9922	0.2735
394.1986	0.2694
394.4049	0.2644
394.6113	0.2745
394.8176	0.2706
395.0239	0.2629
395.2302	0.2668
395.4365	0.2695
395.6428	0.2641
395.8491	0.2625
396.0553	0.2613
396.2615	0.2559
396.4678	0.2611
396.674	0.2585
396.8802	0.2631
397.0863	0.2566
397.2925	0.2537
397.4987	0.2555
397.7048	0.2632
397.9109	0.2604
398.117	0.2531
398.3231	0.2577
398.5292	0.246
398.7353	0.2575
398.9413	0.2506
399.1474	0.2574
399.3534	0.2551
399.5594	0.2559
399.7654	0.2559
399.9714	0.2466
400.1774	0.2587
400.3833	0.2537
400.5893	0.2493
400.7952	0.259
401.0011	0.2516
401.207	0.2541
401.4129	0.2482
401.6188	0.252
401.8247	0.2629
402.0305	0.257
402.2364	0.2583
402.4422	0.2569
402.648	0.2518
402.8538	0.2521
403.0596	0.2535
403.2654	0.2548
403.4711	0.2499
403.6768	0.252
403.8826	0.2529
404.0883	0.2485
404.294	0.2481
404.4997	0.2673
404.7054	0.253
404.911	0.2487
405.1167	0.2526
405.3223	0.2479
405.5279	0.2412
405.7335	0.2525
405.9391	0.2492
406.1447	0.2522
406.3502	0.2462
406.5558	0.2572
406.7613	0.2522
406.9668	0.2445
407.1724	0.2556
407.3778	0.2534
407.5833	0.2388
407.7888	0.2527
407.9942	0.2439
408.1997	0.2531
408.4051	0.2603
408.6105	0.2593
408.8159	0.2485
409.0213	0.2542
409.2267	0.2621
409.432	0.2585
409.6374	0.2599
409.8427	0.256
410.048	0.2575
410.2533	0.252
410.4586	0.2493
410.6639	0.2622
410.8691	0.2398
411.0744	0.2549
411.2796	0.2508
411.4848	0.2466
411.69	0.2426
411.8952	0.2512
412.1004	0.2524
412.3056	0.2508
412.5107	0.2498
412.7158	0.2548
412.921	0.2488
413.1261	0.2525
413.3312	0.2558
413.5362	0.2579
413.7413	0.252
413.9464	0.2387
414.1514	0.2444
414.3564	0.2441
414.5614	0.2438
414.7664	0.2441
414.9714	0.2415
415.1764	0.261
415.3813	0.2352
415.5863	0.2592
415.7912	0.2444
415.9961	0.2447
416.201	0.2447
416.4059	0.2485
416.6108	0.2471
416.8156	0.2411
417.0205	0.246
417.2253	0.25
417.4301	0.2444
417.6349	0.2495
417.8397	0.2457
418.0445	0.2341
418.2492	0.2331
418.454	0.2526
418.6587	0.2446
418.8634	0.2431
419.0681	0.2419
419.2728	0.2307
419.4775	0.2476
419.6822	0.2313
419.8868	0.2325
420.0915	0.2333
420.2961	0.2267
420.5007	0.2409
420.7053	0.2323
420.9099	0.2322
421.1144	0.2408
421.319	0.2275
421.5235	0.2146
421.728	0.2431
421.9325	0.2342
422.137	0.2264
422.3415	0.2357
422.546	0.2235
422.7504	0.2292
422.9549	0.2245
423.1593	0.2288
423.3637	0.2211
423.5681	0.2231
423.7725	0.2214
423.9769	0.2266
424.1812	0.223
424.3856	0.2096
424.5899	0.2173
424.7942	0.2114
424.9985	0.2109
425.2028	0.219
425.4071	0.2152
425.6113	0.2168
425.8156	0.2142
426.0198	0.2104
426.224	0.2168
426.4282	0.1963
426.6324	0.2046
426.8366	0.2021
427.0407	0.2013
427.2449	0.2063
427.449	0.2068
427.6531	0.2171
427.8572	0.2127
428.0613	0.2078
428.2654	0.2081
428.4694	0.1858
428.6735	0.1956
428.8775	0.1925
429.0815	0.1871
429.2855	0.1984
429.4895	0.1955
429.6935	0.1887
429.8975	0.1825
430.1014	0.1895
430.3053	0.1948
430.5093	0.1803
430.7132	0.186
430.9171	0.1863
431.1209	0.1799
431.3248	0.1716
431.5286	0.18
431.7325	0.1849
431.9363	0.1707
432.1401	0.1668
432.3439	0.1707
432.5477	0.164
432.7514	0.1627
432.9552	0.1673
433.1589	0.1565
433.3627	0.1665
433.5664	0.1676
433.7701	0.1653
433.9737	0.1654
434.1774	0.1539
434.3811	0.1488
434.5847	0.1525
434.7883	0.1576
434.9919	0.1524
435.1955	0.1519
435.3991	0.145
435.6027	0.1459
435.8062	0.1583
436.0098	0.1401
436.2133	0.1318
436.4168	0.143
436.6203	0.1372
436.8238	0.1276
437.0272	0.1318
437.2307	0.1275
437.4341	0.1363
437.6375	0.1292
437.841	0.1226
438.0443	0.1345
438.2477	0.1198
438.4511	0.1158
438.6545	0.1265
438.8578	0.1223
439.0611	0.1236
439.2644	0.1192
439.4677	0.1152
439.671	0.1029
439.8743	0.1175
440.0775	0.121
440.2808	0.11
440.484	0.1137
440.6872	0.0978
440.8904	0.0925
441.0936	0.1019
441.2967	0.0962
441.4999	0.0964
441.703	0.0973
441.9062	0.0978
442.1093	0.1023
442.3124	0.0905
442.5155	0.0968
442.7185	0.0885
442.9216	0.088
443.1246	0.0949
443.3276	0.0845
443.5307	0.0779
443.7337	0.0886
443.9366	0.0807
444.1396	0.0783
444.3426	0.0748
444.5455	0.0778
444.7484	0.0673
444.9513	0.0739
445.1542	0.0776
445.3571	0.0747
445.56	0.0719
445.7628	0.0722
445.9657	0.0689
446.1685	0.0714
446.3713	0.0706
446.5741	0.0782
446.7769	0.0649
446.9797	0.0631
447.1824	0.0634
447.3852	0.0484
447.5879	0.0631
447.7906	0.0554
447.9933	0.0577
448.196	0.0519
448.3986	0.0527
448.6013	0.049
448.8039	0.0601
449.0066	0.0617
449.2092	0.06
449.4118	0.0511
449.6143	0.0551
449.8169	0.0459
450.0195	0.0444
450.222	0.0501
450.4245	0.0481
450.627	0.0496
450.8295	0.0446
451.032	0.0433
451.2345	0.0407
451.4369	0.0442
451.6394	0.038
451.8418	0.0357
452.0442	0.0455
452.2466	0.0382
452.449	0.0375
452.6513	0.0345
452.8537	0.0326
453.056	0.0362
453.2583	0.0324
453.4607	0.0238
453.663	0.038
453.8652	0.0308
454.0675	0.0388
454.2697	0.0342
454.472	0.0293
454.6742	0.0358
454.8764	0.034
455.0786	0.0252
455.2808	0.0265
455.4829	0.0387
455.6851	0.0279
455.8872	0.0311
456.0893	0.021
456.2915	0.0244
456.4935	0.0286
456.6956	0.0259
456.8977	0.0289
457.0997	0.0285
457.3018	0.0218
457.5038	0.0257
457.7058	0.028
457.9078	0.0232
458.1098	0.0277
458.3117	0.0317
458.5137	0.0115
458.7156	0.0165
458.9175	0.0221
459.1194	0.0278
459.3213	0.0222
459.5232	0.028
459.725	0.0292
459.9269	0.025
460.1287	0.0194
460.3305	0.0209
460.5323	0.0184
460.7341	0.0159
460.9359	0.0077
461.1376	0.0227
461.3394	0.0176
461.5411	0.0258
461.7428	0.0207
461.9445	0.0131
462.1462	0.012
462.3479	0.0126
462.5495	0.0178
462.7512	0.0265
462.9528	0.0119
463.1544	0.0134
463.356	0.0127
463.5576	0.0195
463.7592	0.0142
463.9607	0.0165
464.1623	0.014
464.3638	0.0088
464.5653	0.0101
464.7668	0.0248
464.9683	0.0206
465.1697	0.0104
465.3712	0.0146
465.5726	0.0099
465.7741	0.0214
465.9755	0.0102
466.1769	0.013
466.3782	0.0036
466.5796	0.0206
466.7809	0.0255
466.9823	0.007
467.1836	0.012
467.3849	0.0141
467.5862	0.0008
467.7875	0.0158
467.9887	0.0146
468.19	0.0099
468.3912	0.0146
468.5924	0.004
468.7936	0.0156
468.9948	0.0094
469.196	0.0081
469.3972	0.0075
469.5983	0.0091
469.7994	0.0187
470.0006	0.0101
470.2017	0.0195
470.4027	0.016
470.6038	0.0052
470.8049	0.009
471.0059	0.0161
471.2069	-0.0005
471.408	0.0103
471.6089	0.0096
471.8099	0.0058
472.0109	0.0178
472.2119	0.0233
472.4128	0.0052
472.6137	0.011
472.8146	0.0069
473.0155	0.0219
473.2164	0.0126
473.4173	0.0022
473.6181	0.0048
473.819	0.0125
474.0198	0.0011
474.2206	-0.0072
474.4214	0.0064
474.6222	-0.0055
474.8229	0.0086
475.0237	0.0181
475.2244	0.0059
475.4251	0.0091
475.6258	0.003
475.8265	0.0121
476.0272	0.0032
476.2278	0.0059
476.4285	0.0014
476.6291	0.0023
476.8297	0.0152
477.0303	0.0023
477.2309	0.0138
477.4315	0.0074
477.632	-0.0016
477.8326	0.0126
478.0331	0.0144
478.2336	0.0053
478.4341	0.0133
478.6346	0.0026
478.8351	0.0045
479.0355	0.0065
479.236	0.0168
479.4364	0.0042
479.6368	0.0018
479.8372	0.0047
480.0376	0.0135
480.2379	0.0095
480.4383	0.0121
480.6386	0.0022
480.8389	0.0125
481.0392	0.0109
481.2395	0.0124
481.4398	0.0058
481.6401	0.0093
481.8403	0.0079
482.0405	0.0055
482.2408	0.0097
482.441	0.009
482.6411	0.0119
482.8413	0.0025
483.0415	0.012
483.2416	0.0105
483.4417	0.0055
483.6419	0.0007
483.8419	0.0079
484.042	0.0091
484.2421	0.0003
484.4422	0.0052
484.6422	0.0024
484.8422	0.0074
485.0422	0.0052
485.2422	0.0001
485.4422	0.0033
485.6422	0.0044
485.8421	0.0049
486.042	0.0138
486.242	-0.001
486.4419	0.0075
486.6417	0.0039
486.8416	0.0033
487.0415	0.0053
487.2413	-0.0024
487.4411	0.0077
487.641	0.0004
487.8408	0.0118
488.0405	0.0063
488.2403	0.0018
488.4401	0.0086
488.6398	0.0077
488.8395	0.0039
489.0392	0.0025
489.2389	0.004
489.4386	0.0023
489.6383	0.0129
489.8379	-0.0069
490.0376	0.0025
490.2372	0.0028
490.4368	0.0027
490.6364	-0.0044
490.836	0.0048
491.0355	-0.0046
491.2351	0.0049
491.4346	0.0119
491.6341	0.0075
491.8336	0.01
492.0331	-0.0024
492.2326	0.0131
492.432	0.0077
492.6315	0.012
492.8309	0.0092
493.0303	0.0022
493.2297	0.0053
493.4291	0.0073
493.6284	0.0105
493.8278	0.0054
494.0271	0.0056
494.2264	-0.0054
494.4257	0.0119
494.625	0.0033
494.8243	0.0149
495.0236	0.0068
495.2228	0.0165
495.422	0.0089
495.6213	0.0015
495.8205	0.0047
496.0196	0.006
496.2188	0.011
496.418	0.0024
496.6171	0.006
496.8162	0.0056
497.0153	0.0079
497.2144	0.0025
497.4135	0.0088
497.6126	0.0051
497.8116	0.0031
498.0107	0.0092
498.2097	0.0012
498.4087	0.0026
498.6077	0.0004
498.8067	0.0116
499.0056	0.0045
499.2046	0.0084
499.4035	0.0047
499.6024	-0.0062
499.8013	0.0157
500.0002	0.0053
500.199	0.0081
500.3979	0.0037
500.5967	0.0059
500.7956	0.0081
500.9944	0.0065
501.1932	0.0119
501.3919	0.0109
501.5907	0.014
501.7895	0.004
501.9882	0.007
502.1869	0.0138
502.3856	-0.0019
502.5843	0.0068
502.783	0.0037
502.9816	0.0128
503.1803	0.003
503.3789	0.0136
503.5775	-0.0053
503.7761	0.0039
503.9747	0.0044
504.1732	0.0054
504.3718	0.0118
504.5703	0.008
504.7689	-0.0019
504.9674	0.0007
505.1658	0.0045
505.3643	0.0051
505.5628	0.0128
505.7612	0.0123
505.9597	-0.001
506.1581	0.0042
506.3565	0.0063
506.5549	0.003
506.7532	0.0065
506.9516	0.0069
507.1499	0.0054
507.3482	0.0063
507.5465	0.0096
507.7448	0.0033
507.9431	0.0124
508.1414	0.0015
508.3396	0.0039
508.5379	0.0013
508.7361	0.0086
508.9343	0.0053
509.1325	0.0199
509.3306	0.0091
509.5288	0.0025
509.7269	0.0107
509.9251	0.0137
510.1232	0.0031
510.3213	0.0107
510.5193	0.0014
510.7174	-0.0027
510.9154	0.0072
511.1135	0.0064
511.3115	0.0075
511.5095	0.0015
511.7075	0.0038
511.9055	0.0104
512.1034	0.0053
512.3014	0.0036
512.4993	0.0052
512.6972	0.0044
512.8951	0.0123
513.093	0.004
513.2908	0.012
513.4887	0.0112
513.6865	0.0067
513.8844	0.0149
514.0822	0.0037
514.2799	-0.0036
514.4777	-0.0019
514.6755	0.0124
514.8732	0.0057
515.0709	0.0093
515.2687	0.003
515.4664	0.0145
515.664	0.013
515.8617	0.003
516.0594	-0.001
516.257	0.0025
516.4546	0.0215
516.6522	0.0091
516.8498	0.003
517.0474	-0.0005
517.2449	0.0002
517.4425	-0.0004
517.64	0.005
517.8375	0.0126
518.035	0.0004
518.2325	0.0038
518.43	0.0019
518.6274	0.0028
518.8249	-0.0064
519.0223	0.0183
519.2197	0.0109
519.4171	0.0056
519.6145	0.0096
519.8118	-0.0057
520.0092	-0.0032
520.2065	0.0176
520.4038	0.0031
520.6011	0.013
520.7984	0.0087
520.9956	0.0132
521.1929	0.0171
521.3901	0.0127
521.5874	0.0055
521.7846	-0.0045
521.9818	0.0107
522.1789	0.0014
522.3761	0.0164
522.5732	0.0038
522.7704	-0.0097
522.9675	-0.0014
523.1646	0.0081
523.3617	0.0107
523.5587	0.0075
523.7558	0.0085
523.9528	0.0075
524.1498	0.0024
524.3468	0.007
524.5438	0.011
524.7408	0.0022
524.9378	0.0127
525.1347	0.0098
525.3316	0.0007
525.5285	0.0098
525.7254	0.0067
525.9223	0.0185
526.1192	0.0094
526.316	0.0062
526.5129	0.0126
526.7097	0.0037
526.9065	0.006
527.1033	0.0134
527.3	0.0021
527.4968	0.0147
527.6935	0.0055
527.8903	0.0112
528.087	0.0093
528.2837	0.006
528.4804	0.0058
528.677	0.0104
528.8737	0.0014
529.0703	0.0037
529.2669	0.008
529.4635	0.001
529.6601	0.0038
529.8567	-0.0114
530.0532	0.0062
530.2498	0.0099
530.4463	0.0036
530.6428	0.0035
530.8393	0.0207
531.0358	0.0079
531.2322	-0.0095
531.4287	-0.0038
531.6251	-0.0003
531.8215	0.0107
532.0179	0.0116
532.2143	0.0041
532.4107	0.0052
532.607	0.0043
532.8034	0.0021
532.9997	0.0023
533.196	-0.0014
533.3923	0.015
533.5886	0.0001
533.7848	0.0013
533.9811	0.0014
534.1773	0.0115
534.3735	0.0101
534.5697	0.0044
534.7659	0.006
534.9621	-0.0044
535.1582	0.0077
535.3544	0.0017
535.5505	0.0088
535.7466	0.0036
535.9427	0.0062
536.1387	0.0088
536.3348	0.0106
536.5308	0.0007
536.7269	0.0142
536.9229	0.0132
537.1189	0.0159
537.3148	0.0071
537.5108	0.006
537.7068	0.0127
537.9027	-0.0017
538.0986	0.0126
538.2945	0.0042
538.4904	0.0071
538.6863	0.0056
538.8821	0.0059
539.078	0.0109
539.2738	-0.004
539.4696	-0.0034
539.6654	-0.0002
539.8611	0.0185
540.0569	-0.0036
540.2526	0.014
540.4484	0.0021
540.6441	0.0006
540.8398	0.0114
541.0355	0.0016
541.2311	0.0108
541.4268	0.0064
541.6224	0.021
541.818	0.0092
542.0136	0.0164
542.2092	0.0106
542.4048	0.0038
542.6003	-0.006
542.7959	0.0059
542.9914	-0.0063
543.1869	0.003
543.3824	0.0039
543.5779	0.0145
543.7734	0.0119
543.9688	0.0084
544.1642	0.0004
544.3596	0.01
544.555	0.0099
544.7504	0.0114
544.9458	0.009
545.1411	0.0027
545.3365	0.0166
545.5318	0.0052
545.7271	0.0128
545.9224	-0.0047
546.1177	0.0186
546.3129	-0.0015
546.5081	-0.0029
546.7034	0.0045
546.8986	0.0019
547.0938	0.0175
547.289	0.0076
547.4841	0.0041
547.6793	-0.0032
547.8744	0.0156
548.0695	0.0052
548.2646	0.0076
548.4597	0.004
548.6548	0.0264
548.8498	0.0118
549.0448	0.0111
549.2399	0.0115
549.4349	0.0085
549.6298	0.0165
549.8248	0.001
550.0198	0.0024
550.2147	0.0087
550.4096	-0.001
550.6045	0.0105
550.7994	0.0053
550.9943	0.0146
551.1892	-0.0085
551.384	0.0104
551.5788	-0.0043
551.7737	0.0189
551.9685	0.014
552.1632	0.0094
552.358	0.0039
552.5528	0.0033
552.7475	0.0048
552.9422	0.0171
553.1369	0.0194
553.3316	0.0149
553.5263	0.0089
553.7209	0.0041
553.9156	0.0059
554.1102	0.0119
554.3048	0.0085
554.4994	0.0071
554.694	0.0059
554.8885	0.0089
555.0831	0.0033
555.2776	0.0032
555.4721	0.0079
555.6666	0.0059
555.8611	0.0078
556.0555	0.0063
556.25	0.0117
556.4444	0.0086
556.6388	0.0002
556.8332	0.0073
557.0276	0.0141
557.222	0.0021
557.4163	0.0106
557.6107	0.0061
557.805	-0.0009
557.9993	0.0156
558.1936	-0.0085
558.3879	0.0147
558.5821	0.0049
558.7764	0.0024
558.9706	-0.0022
559.1648	0.0059
559.359	-0.0032
559.5532	0.0045
559.7473	0.0012
559.9415	0.0067
560.1356	0.0166
560.3297	0.0015
560.5238	0.0096
560.7179	-0.0031
560.9119	0.0056
561.106	-0.0034
561.3	0.006
561.494	-0.005
561.688	-0.003
561.882	0.0022
562.076	0.0033
562.2699	0.0163
562.4639	0.0098
562.6578	0.0097
562.8517	0.0052
563.0456	0.0093
563.2395	0.0125
563.4333	0.0124
563.6272	0.0083
563.821	0.0018
564.0148	0.0094
564.2086	0.0134
564.4024	0.0074
564.5961	0.0085
564.7899	0.0159
564.9836	0.0022
565.1773	0.0086
565.371	0.0115
565.5647	0.0044
565.7584	0.0138
565.952	0.0004
566.1456	-0.0027
566.3393	0.0079
566.5329	0.0016
566.7264	0.0038
566.92	0.0012
567.1136	-0.0001
567.3071	-0.0013
567.5006	0.0049
567.6941	0.0034
567.8876	0.0056
568.0811	0.018
568.2745	0.0023
568.468	0.0044
568.6614	0.0085
568.8548	0.0098
569.0482	0.006
569.2416	0.0045
569.4349	0.0041
569.6283	0.0033
569.8216	0.0085
570.0149	0.0002
570.2082	0.0092
570.4015	0.0069
570.5947	0.0052
570.788	0.011
570.9812	0.001
571.1744	0.0068
571.3676	0.0037
571.5608	0.0052
571.754	0.0129
571.9471	0.0118
572.1402	0.0059
572.3333	0.0074
572.5264	0.009
572.7195	0.0035
572.9126	0.0061
573.1057	0.0052
573.2987	0.0022
573.4917	0.0053
573.6847	0.0053
573.8777	0.0092
574.0707	0.0078
574.2636	0.0043
574.4566	-0.0007
574.6495	0.0036
574.8424	0.0075
575.0353	0.0099
575.2281	0.0087
575.421	0.0055
575.6138	0
575.8067	0.005
575.9995	0.0054
576.1923	0.0083
576.385	0.0067
576.5778	0.0078
576.7706	0.0056
576.9633	0.0098
577.156	-0.0028
577.3487	0.0031
577.5414	0.0023
577.734	0.003
577.9267	0.0092
578.1193	0.0057
578.3119	0.0039
578.5045	0.0059
578.6971	0.0045
578.8897	0.0006
579.0822	0.0057
579.2747	0.0062
579.4673	0.0053
579.6598	0.0064
579.8522	0.0004
580.0447	0.0112
580.2372	0.0077
580.4296	0.0075
580.622	0.0046
580.8144	0.0053
581.0068	0.0071
581.1992	0.0049
581.3915	0.0001
581.5839	0.0045
581.7762	0.0028
581.9685	0.0056
582.1608	0.0055
582.353	0.0033
582.5453	0.0049
582.7375	0.0058
582.9298	0.0005
583.122	0.0011
583.3142	0.0067
583.5063	0.0046
583.6985	0.0022
583.8906	0.0047
584.0827	0.007
584.2749	0.0053
584.4669	0.0049
584.659	0.0078
584.8511	0.0078
585.0431	0.0062
585.2352	0.005
585.4272	0.007
585.6192	0.0071
585.8111	0.0045
586.0031	0.0022
586.195	0.0053
586.387	0.0024
586.5789	0.0069
586.7708	0.0054
586.9627	0.0059
587.1545	0.0057
587.3464	0.0056
587.5382	0.0059
587.73	0.0095
587.9218	0.0031
588.1136	0.0008
588.3053	0.0029
588.4971	0.0045
588.6888	0.0043
588.8805	0.0016
589.0722	0.0136
589.2639	0.0054
589.4556	0.007
589.6472	0.008
589.8389	0.0072
590.0305	-0.0003
590.2221	0.0076
590.4137	0.0005
590.6052	0.0021
590.7968	0.0085
590.9883	0.0037
591.1798	0.0055
591.3713	0.0051
591.5628	0.0053
591.7543	0.0043
591.9458	0.0006
592.1372	0.0075
592.3286	-0.0008
592.52	0.0035
592.7114	0.0051
592.9028	0.0143
593.0941	0.0021
593.2855	0.0049
593.4768	0.009
593.6681	0.0046
593.8594	0.008
594.0506	0.0026
594.2419	0.0044
594.4331	0.0085
594.6244	-0.002
594.8156	0.0042
595.0067	0.0006
595.1979	0.0025
595.3891	0.0002
595.5802	0.0103
595.7713	0.0048
595.9624	0.0084
596.1535	0.0045
596.3446	0.0023
596.5357	0.0087
596.7267	0.0084
596.9177	-0.0006
597.1087	0.0059
597.2997	0.0073
597.4907	0.0027
597.6817	0.0078
597.8726	0.0033
598.0635	0.0075
598.2544	0.005
598.4453	0.007
598.6362	0.0032
598.827	-0.0006
599.0179	0.0086
599.2087	0.0113
599.3995	0.0055
599.5903	0.0069
599.7811	0.0123
599.9718	-0.0011
600.1626	0.0015
600.3533	-0.0005
600.544	0.0036
600.7347	0.0087
600.9254	0.0077
601.116	0.0076
601.3067	0.0038
601.4973	0.0094
601.6879	-0.0014
601.8785	0.0043
602.0691	0.0051
602.2596	0.0047
602.4502	0.0063
602.6407	0.0063
602.8312	0.0077
603.0217	0.0046
603.2122	0.0036
603.4027	0.006
603.5931	0.0001
603.7835	0.0039
603.9739	0.0072
604.1643	0.0122
604.3547	0.0096
604.5451	0.0134
604.7354	-0.0042
604.9257	0.0034
605.116	0.0002
605.3063	0.0078
605.4966	0.0047
605.6869	0.0109
605.8771	0.0036
606.0673	0.0036
606.2575	0.0002
606.4477	0.0145
606.6379	0.0051
606.8281	0.0023
607.0182	0.006
607.2083	0.0043
607.3985	0.0083
607.5885	0.0051
607.7786	0.0062
607.9687	0.0121
608.1587	0.0096
608.3488	0.0076
608.5388	-0.0016
608.7288	-0.0027
608.9187	0.0064
609.1087	0.0038
609.2986	0.0122
609.4886	0.0062
609.6785	0.0053
609.8684	-0.0003
610.0582	0.0047
610.2481	-0.0043
610.4379	0.0056
610.6278	0.0024
610.8176	0.0128
611.0074	0.0044
611.1971	0.0039
611.3869	0.0101
611.5766	-0.0028
611.7664	0.0044
611.9561	0.0149
612.1458	0.0098
612.3354	0.01
612.5251	0.0088
612.7147	0.0113
612.9044	-0.0035
613.094	0.0045
613.2836	0.0046
613.4731	0.003
613.6627	0.0051
613.8522	0.0032
614.0417	0.0128
614.2313	0.0029
614.4207	0.0097
614.6102	0.0159
614.7997	0.0072
614.9891	0.0019
615.1785	-0.0003
615.3679	0.0029
615.5573	0.0084
615.7467	-0.0006
615.9361	0.0043
616.1254	0.0052
616.3147	0.0036
616.504	0.0085
616.6933	0.0012
616.8826	0.0003
617.0718	0.0159
617.2611	0.003
617.4503	0.0009
617.6395	0.005
617.8287	0.0108
618.0179	0.0045
618.207	0.0081
618.3961	-0.0061
618.5853	0.0039
618.7744	0.0046
618.9634	0.0117
619.1525	0.0077
619.3416	0.0057
619.5306	0.0076
619.7196	0.0119
619.9086	0.0034
620.0976	-0.0046
620.2866	0.0094
620.4755	-0.0014
620.6645	0.0155
620.8534	0.0031
621.0423	-0.0026
621.2312	0.0054
621.42	0.0165
621.6089	0.0066
621.7977	0.0063
621.9865	0.0055
622.1753	-0.002
622.3641	-0.0062
622.5529	-0.0019
622.7416	-0.0047
622.9303	-0.0031
623.1191	-0.003
623.3078	0.0058
623.4964	-0.0051
623.6851	0.0107
623.8737	-0.0006
624.0624	-0.0044
624.251	0.0035
624.4396	0.0029
624.6282	0.0165
624.8167	0.0092
625.0053	0.0216
625.1938	0.0028
625.3823	-0.0008
625.5708	-0.0053
625.7593	0.0076
625.9477	0.0138
626.1362	0.004
626.3246	0.0005
626.513	0.0104
626.7014	0.0121
626.8898	0.0166
627.0781	0.0088
627.2665	0.0145
627.4548	0.0067
627.6431	0.0181
627.8314	0.0129
628.0197	0.017
628.2079	-0.008
628.3962	0.0032
628.5844	0.007
628.7726	0.0072
628.9608	-0.0001
629.1489	0.014
629.3371	-0.0006
629.5252	0.0071
629.7134	-0.0114
629.9015	0.0153
630.0895	-0.0044
630.2776	0.007
630.4657	0.0171
630.6537	0.0018
630.8417	-0.0095
631.0297	0.0013
631.2177	0.01
631.4057	0.0075
631.5936	0.0029
631.7815	-0.0011
631.9695	0.017
632.1574	-0.0021
632.3452	0.0019
632.5331	0.0068
632.7209	0.0085
632.9088	-0.0021
633.0966	0.0221
633.2844	0.0075
633.4722	0.0163
633.6599	0.0235
633.8477	0.0008
634.0354	0.0229
634.2231	-0.0168
634.4108	0.0046
634.5985	0.0157
634.7861	0.0125
634.9738	-0.0016
635.1614	0.0106
635.349	0.0005
635.5366	0.0106
635.7242	0.0149
635.9117	0.0013
636.0993	0.0163
636.2868	-0.0066
636.4743	0.0018
636.6618	-0.0041
636.8492	0.0146
637.0367	-0.0028
637.2241	-0.0005
637.4115	0.0353
637.5989	-0.0025
637.7863	0.0295
637.9737	0.0063
638.161	0.0183
638.3484	-0.0122
638.5357	0.0018
638.723	0.0093
638.9103	-0.0009
639.0975	-0.0139
639.2848	0.0114
639.472	0.0101
639.6592	-0.0177
639.8464	0.0094
640.0336	0.005
640.2208	0.0137
640.4079	-0.0183
640.595	-0.0051
640.7821	0.0207
640.9692	-0.0035
641.1563	-0.003
641.3434	0.0179
641.5304	0.0195
641.7174	0.0093
641.9044	0.0026
642.0914	0.0176
642.2784	-0.0063
642.4653	-0.0052
642.6523	-0.0013
642.8392	0.014
643.0261	0.0078
643.213	0.0036
643.3999	0.0359
643.5867	-0.0048
643.7735	0.0051
643.9604	0.0055
644.1472	0.0153
644.3339	0.0058
644.5207	-0.0076
644.7075	0.0129
644.8942	0
645.0809	-0.0044
645.2676	-0.0063
645.4543	0.0056
645.6409	0.0225
645.8276	0.0234
646.0142	-0.0069
646.2008	-0.0078
646.3874	-0.0076
646.574	0.0084
646.7605	0.0071
646.9471	-0.0106
647.1336	-0.0101
647.3201	0.0075
647.5066	0.0117
647.6931	0.0078
647.8795	0.0119
648.0659	0.0099
648.2524	-0.0012
648.4388	0.0128
648.6252	0.0128
648.8115	0.0162
648.9979	0.0039
649.1842	0.0032
649.3705	0.0087
649.5568	0.0076
649.7431	-0.0089
649.9294	-0.0063
650.1156	-0.0211
650.3018	0.0093
650.488	0.0126
650.6742	0.0183
650.8604	0.0161
651.0466	0.0032
651.2327	-0.0039
651.4188	-0.0015
651.6049	0.0185
651.791	0.0189
651.9771	0.0007
652.1632	0.0142
652.3492	0.0002
652.5352	0.0029
652.7212	-0.0079
652.9072	-0.008
653.0932	0.0256
653.2791	0.0031
653.465	0.0093
653.651	0.0203
653.8369	0.0118
654.0227	0.002
654.2086	-0.0028
654.3944	0.0136
654.5803	0.0046
654.7661	0.0082
654.9519	-0.0027
655.1377	0.0001
655.3234	0.0001
655.5092	0.0001
655.6949	0.0001
655.8806	0.0001
656.0663	0.0001
656.2519	0.0001
656.4376	0.0001
656.6232	0.0001
656.8088	0.0001
656.9945	0.0001
657.18	0.0001
657.3656	0.0001
657.5511	0.0001
657.7367	0.0001
657.9222	0.0001
658.1077	0.0001
658.2932	0.0001
658.4786	0.0001
658.6641	0.0001
658.8495	0.0001
659.0349	0.0001
659.2203	0.0001
659.4057	0.0001
659.591	0.1644
659.7764	0.024
659.9617	0.009
660.147	0.0234
660.3323	0.0022
660.5176	0.0128
660.7028	-0.004
660.888	0.0023
661.0733	0.0192
661.2585	-0.0024
661.4436	-0.0036
661.6288	0.0159
661.8139	0.0023
661.9991	-0.0133
662.1842	0.0214
662.3693	0.0023
662.5544	0.0162
662.7394	0.0134
662.9245	0.0145
663.1095	-0.0226
663.2945	-0.0111
663.4795	-0.0075
663.6644	0.0132
663.8494	0.0186
664.0343	0.0029
664.2193	-0.0072
664.4042	0.0201
664.589	0.0052
664.7739	-0.0031
664.9587	-0.0105
665.1436	0
665.3284	0.002
665.5132	-0.0306
665.698	0.0114
665.8827	0.0106
666.0675	-0.0437
666.2522	0.012
666.4369	-0.0012
666.6216	0.0295
666.8063	0.0128
666.9909	0.0086
667.1756	-0.0016
667.3602	-0.0032
667.5448	0.02
667.7294	0.014
667.9139	0.0021
668.0985	0.0038
668.283	0.0031
668.4675	0.0224
668.652	0.0078
668.8365	0.0051
669.0209	-0.0028
669.2054	0.0396
669.3898	-0.0071
669.5742	0.0163
669.7586	0.0131
669.943	0.0209
670.1273	0.0016
670.3117	0.0197
670.496	-0.0047
670.6803	0.0138
670.8646	-0.0024
671.0488	0.0324
671.2331	-0.0084
671.4173	0.0246
671.6015	-0.0012
671.7857	-0.0036
671.9699	0.0255
672.1541	0.004
672.3382	0.0032
672.5223	0.0108
672.7064	0.0065
672.8905	0.0031
673.0746	-0.0032
673.2587	0.0128
673.4427	0.0142
673.6267	0.0213
673.8107	0.0305
673.9947	0.0105
674.1787	0.0034
674.3626	0.0032
674.5465	-0.0124
674.7304	-0.0009
674.9143	-0.0057
675.0982	0.0183
675.2821	0.0108
675.4659	0.0164
675.6497	0.0278
675.8335	0.0076
676.0173	0.016
676.2011	0.0252
676.3849	-0.0025
676.5686	0.0159
676.7523	0.0401
676.936	0.0151
677.1197	0.0025
677.3034	0.038
677.487	-0.0055
677.6706	-0.0008
677.8542	-0.013
678.0378	0.0174
678.2214	0.0247
678.405	0.0037
678.5885	0.0081
678.772	0.0061
678.9555	-0.0025
679.139	0.0043
679.3225	0.01
679.5059	0.0012
679.6894	-0.0064
679.8728	0.0125
680.0562	0.0067
680.2395	-0.0004
680.4229	-0.0051
680.6062	0.0003
680.7896	-0.0242
680.9729	0.0171
681.1562	-0.0174
681.3394	0.0064
681.5227	0.0052
681.7059	-0.01
681.8891	0.0133
682.0723	0.0012
682.2555	0.0283
682.4387	0.0095
682.6218	0.0168
682.805	0.0105
682.9881	0.0416
683.1712	0.0183
683.3542	0.026
683.5373	0.0137
683.7203	0.0108
683.9034	-0.0199
684.0864	0.0073
684.2694	0.0129
684.4523	0.0083
684.6353	0.009
684.8182	0.0073
685.0011	0.0175
685.184	0.0101
685.3669	0.0297
685.5498	0.0015
685.7326	-0.0205
685.9154	-0.0127
686.0982	0.0085
686.281	0.0016
686.4638	0.0137
686.6465	-0.0008
686.8293	-0.0204
687.012	0.0135
687.1947	0.0073
687.3774	-0.0042
687.56	-0.0033
687.7427	-0.0057
687.9253	-0.0171
688.1079	0.0093
688.2905	0.0061
688.4731	0.0125
688.6556	0.0083
688.8382	-0.0157
689.0207	0.0117
689.2032	0.0254
689.3857	-0.0005
689.5681	-0.009
689.7506	0.0414
689.933	0.0053
690.1154	0.0348
690.2978	0.0087
690.4802	0.0345
690.6626	0.0005
690.8449	0.0195
691.0272	-0.0014
691.2095	-0.0082
691.3918	0.0215
691.5741	0.0139
691.7563	0.0037
691.9386	0.0166
692.1208	0.0147
692.303	0.0087
692.4852	0.0187
692.6673	0.0033
692.8495	-0.0144
693.0316	0.007
693.2137	-0.0073
693.3958	0.0103
693.5778	0.0245
693.7599	-0.0026
693.9419	-0.0051
694.1239	0.0115
694.3059	0.0365
694.4879	0.0225
694.6699	0.0115
694.8518	0.0131
695.0337	0.0269
695.2157	0.0294
695.3975	-0.0022
695.5794	-0.0138
695.7613	-0.0023
695.9431	-0.0015
696.1249	0.0272
696.3067	-0.0015
696.4885	0.0192
696.6703	0.0149
696.852	-0.0003
697.0337	0.0191
697.2154	0.0234
697.3971	0.0136
697.5788	0.0263
697.7605	0.0037
697.9421	0.0052
698.1237	0.006
698.3053	0.003
698.4869	-0.0076
698.6685	-0.0038
698.85	0.0195
699.0315	-0.0224
699.213	0.0175
699.3945	-0.0221
699.576	0.023
699.7575	0.042
699.9389	-0.0096
700.1203	-0.0039
700.3017	0.0193
700.4831	0.026
700.6645	0.0073
700.8458	0.0032
701.0271	0.0439
701.2084	0.0111
701.3897	-0.0117
701.571	-0.0074
701.7523	0.0007
701.9335	0.0041
702.1147	0.0113
702.2959	0.0106
702.4771	-0.0023
702.6583	-0.004
702.8394	-0.0132
703.0205	0.005
703.2016	-0.0282
703.3827	0.0032
703.5638	0.0123
703.7449	0.01
703.9259	0.003
704.1069	-0.0113
704.2879	-0.0007
704.4689	0.0036
704.6499	0.0211
704.8308	0.0249
705.0117	0.0418
705.1927	-0.0033
705.3735	0.0258
705.5544	0.0322
705.7353	-0.0156
705.9161	-0.0025
706.0969	0.0076
706.2777	-0.0052
706.4585	0.0008
706.6393	0.0049
706.82	0.0089
707.0007	-0.005
707.1815	-0.0043
707.3621	0.0289
707.5428	0.0206
707.7235	0.0175
707.9041	0.0063
708.0847	0.0127
708.2653	0.0244
708.4459	-0.0035
708.6265	-0.0115
708.807	-0.0048
708.9875	-0.0079
709.168	0.0065
709.3485	0.0182
709.529	0.0054
709.7095	-0.0269
709.8899	0.0063
710.0703	0.0091
710.2507	0.0095
710.4311	-0.0218
710.6115	0.0305
710.7918	0.0113
710.9721	0.0156
711.1524	-0.0062
711.3327	-0.01
711.513	0.0163
711.6932	0.0125
711.8735	0.0196
712.0537	0.0079
712.2339	-0.0019
712.4141	0.0392
712.5942	-0.0188
712.7744	0.0047
712.9545	0.015
713.1346	0.0229
713.3147	0.0086
713.4947	-0.0062
713.6748	0.0116
713.8548	0.0067
714.0348	0.0175
714.2148	0.0232
714.3948	0.0275
714.5748	0.0118
714.7547	-0.0062
714.9346	0.0295
715.1145	0.0128
715.2944	0.0075
715.4743	0.0347
715.6541	-0.0134
715.834	0.0372
716.0138	0.017
716.1936	-0.0083
716.3733	0.0185
716.5531	0.0033
716.7328	0.0069
716.9126	0.0011
717.0923	-0.0321
717.2719	0.0263
717.4516	0.0282
717.6312	0.0162
717.8109	0.04
717.9905	0.0226
718.1701	0.006
718.3496	0.0032
718.5292	0.0046
718.7087	0.0187
718.8882	0.0297
719.0677	0.0052
719.2472	0.0001
719.4267	-0.0244
719.6061	-0.0042
719.7856	0.0304
719.965	-0.0012
720.1443	-0.0046
720.3237	0.0105
720.5031	-0.0064
720.6824	0.0073
720.8617	0.0176
721.041	0.0476
721.2203	-0.0231
721.3995	0.0176
721.5788	-0.0054
721.758	0.0131
721.9372	-0.0023
722.1164	0.0018
722.2956	0.0032
722.4747	0.012
722.6538	-0.0004
722.8329	0.0163
723.012	0.0061
723.1911	0.0169
723.3702	0.0258
723.5492	0.014
723.7282	0.0061
723.9072	0.0048
724.0862	0.0174
724.2652	-0.0067
724.4441	-0.0072
724.623	0.0243
724.8019	0.025
724.9808	-0.0064
725.1597	0.0167
725.3385	0.0127
725.5174	0.0076
725.6962	-0.002
725.875	0.0091
726.0538	0.0106
726.2325	0.036
726.4112	-0.0157
726.59	-0.014
726.7687	-0.0121
726.9474	0.017
727.126	0.0093
727.3047	0.0243
727.4833	0.0177
727.6619	0.0113
727.8405	-0.0134
728.0191	0.0323
728.1976	0.0036
728.3762	0.021
728.5547	-0.0054
728.7332	0.0256
728.9116	-0.0083
729.0901	0.0067
729.2686	0.0093
729.447	-0.009
729.6254	0.0083
729.8038	-0.0025
729.9821	-0.0172
730.1605	0.0189
730.3388	-0.0154
730.5171	0.0108
730.6954	-0.0034
730.8737	0.0087
731.0519	0.0008
731.2302	0.0294
731.4084	-0.0002
731.5866	0.0021
731.7648	0.0037
731.9429	0.0263
732.1211	0.0185
732.2992	0.018
732.4773	0.0032
732.6554	-0.0139
732.8335	0.0178
733.0115	0.0189
733.1896	-0.0013
733.3676	0.0153
733.5456	0.003
733.7235	-0.0011
733.9015	0.0243
734.0794	0.0037
734.2574	-0.0049
734.4353	0.0144
734.6131	0
734.791	0.008
734.9689	-0.0117
735.1467	0.0023
735.3245	0.0106
735.5023	0.0104
735.68	0.0072
735.8578	0.0263
736.0355	0.0158
736.2132	0.0203
736.3909	0.0084
736.5686	0.0102
736.7463	-0.008
736.9239	0.0403
737.1015	0.0166
737.2791	-0.0069
737.4567	0.0293
737.6343	-0.0056
737.8118	0.0162
737.9894	0.0272
738.1669	-0.0029
738.3444	0.0279
738.5218	-0.0137
738.6993	0.0109
738.8767	0.0063
739.0541	0.0173
739.2315	0.0299
739.4089	0.023
739.5863	-0.0031
739.7636	0.0345
739.9409	0.0044
740.1182	0.002
740.2955	0.0216
740.4728	-0.0207
740.65	-0.0101
740.8272	0.0171
741.0044	-0.0305
741.1816	0.0176
741.3588	0.0144
741.5359	-0.035
741.7131	-0.0056
741.8902	-0.0008
742.0673	-0.0133
742.2444	0.0004
742.4214	0.0035
742.5985	0.0005
742.7755	-0.0081
742.9525	-0.0075
743.1295	-0.0044
743.3064	0.0064
743.4834	-0.0146
743.6603	0.0344
743.8372	-0.0434
744.0141	0.0461
744.191	0.0222
744.3678	-0.0091
744.5446	0.0363
744.7215	0.0163
744.8982	0.0213
745.075	0.0545
745.2518	0.0301
745.4285	0.0552
745.6052	-0.0058
745.7819	0.031
745.9586	0.0348
746.1353	-0.0019
746.3119	-0.0078
746.4885	0.0155
746.6651	0.0322
746.8417	-0.0045
747.0183	0.0395
747.1948	0.0097
747.3714	0.0067
747.5479	0.0021
747.7244	0.0251
747.9008	0.0154
748.0773	0.0135
748.2537	0.004
748.4301	0.0281
748.6065	0.001
748.7829	-0.0305
748.9593	0.0132
749.1356	0.0001
749.3119	-0.0031
749.4882	0.0277
749.6645	0.0086
749.8408	0.0175
750.017	0.0025
750.1933	-0.0253
750.3695	0.014
750.5457	0.0028
750.7218	-0.0131
750.898	-0.002
751.0741	-0.0056
751.2502	0.0072
751.4263	0.0148
751.6024	0.0036
751.7784	-0.0052
751.9545	-0.0018
752.1305	0.0031
752.3065	0.0187
752.4825	-0.009
752.6584	0.0204
752.8344	-0.0065
753.0103	0.0008
753.1862	0.0281
753.3621	0.0023
753.5379	-0.017
753.7138	0.0142
753.8896	-0.0073
754.0654	-0.0068
754.2412	0.0067
754.417	0.0235
754.5927	-0.0117
754.7685	0.0208
754.9442	0.0193
755.1199	0.0206
755.2956	0.0219
755.4712	0.0143
755.6469	0.0041
755.8225	-0.0025
755.9981	0.0154
756.1736	0.0075
756.3492	-0.0148
756.5248	0.0307
756.7003	0.0078
756.8758	-0.001
757.0513	0.0079
757.2267	0.0164
757.4022	0.006
757.5776	0.0002
757.753	0.0179
757.9284	0.0012
758.1038	0.0264
758.2791	0.0115
758.4545	-0.0062
758.6298	0.0122
758.8051	0.0179
758.9803	0.0245
759.1556	-0.0009
759.3308	-0.0015
759.506	0.0105
759.6812	0.0067
759.8564	0.0047
760.0316	0.01
760.2067	0.028
760.3819	0.011
760.557	-0.0006
760.732	-0.0015
760.9071	0.0168
761.0821	-0.016
761.2572	0.0104
761.4322	0.003
761.6072	-0.0137
761.7821	-0.0323
761.9571	0.0187
762.132	0.0272
762.3069	-0.0052
762.4818	0.0012
762.6567	-0.032
762.8316	0.0192
763.0064	0.0064
763.1812	0.0104
763.356	-0.0031
763.5308	0.0264
763.7055	-0.0058
763.8803	-0.0047
764.055	-0.0105
764.2297	0
764.4044	0.0092
764.579	0.0135
764.7537	0.0029
764.9283	0.0117
765.1029	0.0041
765.2775	0.0159
765.4521	0.0089
765.6266	-0.0012
765.8011	0.0059
765.9756	0.0268
766.1501	0.0243
766.3246	0.0139
766.4991	0.0361
766.6735	0.0226
766.8479	0.0087
767.0223	-0.001
767.1967	-0.0094
767.371	0.019
767.5454	0.0173
767.7197	0.0454
767.894	-0.0162
768.0683	0.0364
768.2425	0.0071
768.4168	0.0068
768.591	0.0001
768.7652	-0.0155
768.9394	-0.0199
769.1135	-0.0102
769.2877	0.0128
769.4618	0.0304
769.6359	0.0289
769.81	0.0293
769.984	0.0016
770.1581	-0.0055
770.3321	0.0494
770.5061	-0.0074
770.6801	-0.0006
770.8541	0.0234
771.028	0.0358
771.202	0.0397
771.3759	0.0071
771.5498	0.0273
771.7236	0.0077
771.8975	0.0268
772.0713	0.0464
772.2451	-0.0129
772.4189	0.0104
772.5927	-0.005
772.7665	0.0153
772.9402	0.015
773.1139	-0.0129
773.2876	-0.0054
773.4613	0.0286
773.635	0.0508
773.8086	0.0069
773.9822	0.0135
774.1558	0.0231
774.3294	0.0363
774.503	0.0064
774.6765	0.0015
774.8501	0.0008
775.0236	0.0523
775.1971	-0.0407
775.3705	0.0434
775.544	-0.0544
775.7174	0.0315
775.8908	0.0045
776.0642	-0.0096
776.2376	0.0421
776.4109	0.034
776.5843	0.0028
776.7576	0.0236
776.9309	0.0018
777.1041	-0.0372
777.2774	-0.0007
777.4506	-0.0058
777.6238	0.0126
777.797	0.0406
777.9702	-0.0038
778.1434	0.0057
778.3165	-0.0337
778.4896	-0.0342
778.6627	-0.001
778.8358	-0.0096
779.0089	-0.0244
779.1819	0.0347
779.3549	0.0344
779.5279	0.006
779.7009	0.0143
779.8739	0.013
780.0468	0.0181
780.2197	0.0199
780.3926	0.0154
780.5655	0.0428
780.7384	0.019
780.9112	0.0513
781.0841	0.0142
781.2569	0.0323
781.4297	0.0083
781.6024	0.0254
781.7752	0.04
781.9479	0.0655
782.1206	-0.002
782.2933	-0.0105
782.466	0.0169
782.6386	-0.0067
782.8113	-0.0186
782.9839	-0.0046
783.1565	-0.0032
783.329	0.0257
783.5016	-0.0067
783.6741	-0.0011
783.8466	0.0521
784.0191	0.0291
784.1916	-0.0574
784.3641	-0.0674
784.5365	0.0358
784.7089	-0.0289
784.8813	0.0619
785.0537	0.0176
785.2261	-0.0036
785.3984	-0.0081
785.5707	-0.0339
785.743	0.0311
785.9153	-0.0381
786.0876	-0.0293
786.2598	-0.0087
786.432	0.0538
786.6042	0.0521
786.7764	-0.0329
786.9486	-0.0175
787.1207	-0.0024
787.2928	0.0464
787.4649	-0.0347
787.637	-0.0075
787.8091	0.0174
787.9811	0.0466
788.1532	0.02
788.3252	-0.0057
788.4972	-0.0182
788.6691	0.0248
788.8411	-0.0023
789.013	0.0096
789.1849	0.0138
789.3568	0.017
789.5287	0.0706
789.7005	-0.0869
789.8723	-0.0358
790.0442	0.0154
790.2159	0.0279
790.3877	0.0653
790.5595	0.0614
790.7312	0.0312
790.9029	0.0299
791.0746	-0.0398
791.2463	-0.0247
791.4179	0.0163
791.5896	0.058
791.7612	0.0789
791.9328	0.0116
792.1044	0.0925
792.2759	-0.0534
792.4474	-0.0056
792.619	-0.011
792.7905	0.0036
792.9619	0.0895
793.1334	0.0051
793.3048	0.0216
793.4762	0.0164
793.6476	-0.0498
793.819	-0.0045
793.9904	-0.0047
794.1617	-0.0264
794.333	0.013
794.5043	0.0335
794.6756	-0.0158
794.8469	0.015
795.0181	0.0052
795.1893	0.0509
795.3605	0.041
795.5317	-0.017
795.7029	-0.0212
795.874	0.0212
796.0452	0.0877
796.2163	0.0606
796.3873	0.0643
796.5584	0.0424
796.7294	0.0201
796.9005	0.0581
797.0715	0.0163
797.2425	0.0703
797.4134	0.0437
797.5844	0.1325
797.7553	-0.0488
797.9262	0.007
798.0971	0.0834
798.2679	0.0355
798.4388	0.058
798.6096	0.0617
798.7804	0.0411
798.9512	0.0669
799.122	-0.0247
799.2927	0.0927
799.4635	-0.0186
799.6342	0.0033
799.8049	0.0002
799.9755	-0.1159
800.1462	0.1098
800.3168	-0.0089
800.4874	-0.0958
800.658	0.0797
800.8286	0.0442
800.9991	0.0163
801.1696	-0.0098
801.3402	0.0044
801.5106	-0.0202
801.6811	0.0432
801.8516	0.0946
802.022	-0.0053
802.1924	0.0195
802.3628	0.0613
802.5332	0.0516
802.7035	0.0383
802.8739	0.0284
803.0442	-0.0108
803.2145	0.0102
803.3847	0.0494
803.555	0.0705
803.7252	0.0203
803.8954	-0.0046
804.0656	-0.0043
804.2358	-0.0364
804.4059	-0.0013
804.5761	-0.0497
804.7462	-0.0216
804.9163	-0.0625
805.0864	-0.0747
805.2564	0.0236
805.4264	-0.0095
805.5965	-0.0012
805.7665	0.0302
805.9364	-0.018
806.1064	0.0025
806.2763	0.0407
806.4462	0.0229
806.6161	0.0226
806.786	0.0103
806.9559	0.009
807.1257	-0.0423
807.2955	-0.0131
807.4653	0.016
807.6351	0.0139
807.8048	0.0241
807.9746	0.0232
808.1443	-0.0336
808.314	0.0753
808.4837	0.0312
808.6533	0.0034
808.8229	0.0708
808.9926	0.0599
809.1622	0.0868
809.3317	-0.0199
809.5013	-0.0123
809.6708	0.0036
809.8403	0.0999
810.0098	-0.0306
810.1793	0.0444
810.3488	-0.0556
810.5182	0.115
810.6876	0.0387
810.857	0.0349
811.0264	0.0597
811.1958	0.1656
811.3651	0.0747
811.5344	0.0065
811.7037	0.1328
811.873	0.075
812.0422	0.0184
812.2115	-0.0563
812.3807	0.0274
812.5499	-0.0439
812.7191	-0.0719
812.8882	-0.1448
813.0574	0.0031
813.2265	0.0464
813.3956	-0.0017
813.5646	0.0213
813.7337	0.028
813.9027	-0.0852
814.0718	0.0573
814.2407	0.0495
814.4097	0.0392
814.5787	0.056
814.7476	0.0166
814.9165	-0.019
815.0854	0.0358
815.2543	-0.0707
815.4232	0.1012
815.592	0.1785
815.7608	-0.0967
815.9296	-0.0187
816.0984	0.0041
816.2671	-0.1479
816.4359	0.106
816.6046	0.0036
816.7733	-0.1056
816.942	-0.0379
817.1106	0.1398
817.2793	-0.0275
817.4479	-0.0112
817.6165	0.0293
817.785	-0.028
817.9536	-0.0194
818.1221	0.0414
818.2906	-0.106
818.4591	-0.0805
818.6276	0.1114
818.7961	0.0846
818.9645	0.0056
819.1329	0.0639
819.3013	-0.0361
819.4697	0.0721
819.638	0.1896
819.8064	0.0173
819.9747	-0.0156
820.143	-0.1046
820.3113	0.0683
820.4795	0.081
820.6477	0.0982
820.816	0.0767
820.9842	0.1038
821.1523	0.0341
821.3205	0.0024
821.4886	-0.0098
821.6567	-0.0161
821.8248	0.1347
821.9929	-0.1609
822.1609	0.1239
822.329	-0.068
822.497	0.0206
822.665	-0.0184
822.833	-0.1342
823.0009	0.1123
823.1688	0.0269
823.3367	-0.2459
823.5046	0.1081
823.6725	0.125
823.8404	0.2904
824.0082	-0.0234
824.176	0.0214
824.3438	0.1228
824.5116	-0.0393
824.6793	0.1801
824.847	0.206
825.0147	0.0851
825.1824	-0.0322
825.3501	0.1352
825.5177	0.098
825.6854	-0.1134
825.853	-0.096
826.0206	-0.1578
826.1881	-0.003
826.3557	0.1227
826.5232	0.3493
826.6907	0.0004
826.8582	0.0007
827.0257	0.064
827.1931	0.1026
827.3605	-0.0325
827.528	0.0009
827.6953	-0.1373
827.8627	0.0896
828.03	0.1015
828.1974	-0.0061
828.3647	0.1179
828.532	0.0005
828.6992	0.0777
828.8665	-0.2652
829.0337	0.1685
829.2009	-0.0615
829.3681	-0.0589
829.5352	-0.2761
829.7024	-0.0164
829.8695	0.0122
830.0366	0.0471
830.2037	-0.0257
830.3707	0.0293
830.5378	-0.0311
830.7048	-0.0948
830.8718	0.3087
831.0388	0.0639
831.2057	-0.1461
831.3727	-0.5393
831.5396	0.3565
831.7065	-0.894
831.8734	0.6545
832.0402	0.1807
832.2071	-0.5738
832.3739	-0.0525
832.5407	-1.4993
832.7075	-0.3243
832.8742	0.2263
833.041	0.2624
833.2077	0.1642
833.3744	0.0573
833.541	-0.013
833.7077	-0.1593
833.8743	0.0449
834.0409	0.0215
834.2075	0.1082
834.3741	-0.1266
834.5407	0.5417
834.7072	0.2619
834.8737	0.2509
835.0402	0.3359
835.2067	-0.0886
835.3731	0.0118
835.5395	-0.0832
835.706	-0.0984
835.8723	-0.1036
836.0387	0.076
836.2051	0.1225
836.3714	0.4528
836.5377	-0.1945
836.704	0.6496
836.8703	-0.2193
837.0365	-0.6814
837.2027	-0.1167
837.3689	0.6016
837.5351	0.2725
837.7013	-0.3072
837.8674	-0.3869
838.0335	0.3156
838.1997	0.0258
838.3657	-0
838.5318	-0.5478
838.6978	-0
838.8639	0.2514
839.0299	0.2926
839.1958	-0.0038
839.3618	-0
839.5277	0.1005
839.6937	-0
839.8596	-0.3382
840.0254	0.085
840.1913	-0.3288
840.3571	-0.0964
840.523	-1.1271
840.6888	0.113
840.8545	-0.6101
841.0203	-0.1195
841.186	0.75
841.3517	-0.2582
841.5174	0.0452
841.6831	-0.0926
841.8488	0.3248
842.0144	0.0647
842.18	0.4979
842.3456	-0.6028
842.5112	-0
842.6767	0.1251
842.8422	0.6216
843.0077	0.1657
843.1732	-0.2104
843.3387	0.272
843.5042	-0
843.6696	0.0181
843.835	0.3236
844.0004	-0.2366
844.1657	-0
844.3311	0.6591
844.4964	1.3139
844.6617	0.3216
844.827	0.3729
844.9923	0.1046
845.1575	-0
845.3227	-0.1345
845.4879	-0.337
845.6531	0.2089
845.8183	-0.0251
845.9834	-0
846.1485	0.3264
846.3136	-0.1527
846.4787	-0
846.6438	0.7057
846.8088	-0
846.9738	-0
847.1388	0.1348
847.3038	0.0156
847.4687	-0
847.6337	-0.3061
847.7986	0.0169
847.9635	-0.0942
848.1284	-0
848.2932	0.8198
848.458	-0
848.6228	-0
848.7876	0.3695
848.9524	0.3993
849.1172	-1.7709
849.2819	-0
849.4466	0.3717
849.6113	0.2051
849.7759	-0
849.9406	-0.0633
850.1052	-1.269
850.2698	0.6867
850.4344	-0.8792
850.599	-0
850.7635	0.394
850.928	0.5245
851.0925	0.2459
851.257	0.1435
851.4215	0.9519
851.5859	0.7389
851.7503	-0
851.9147	0.5188
852.0791	-0.0155
852.2434	0.3126
852.4078	-0
852.5721	0.4895
852.7364	0.4036
852.9007	-0.1398
853.0649	-0
853.2291	0.0617
853.3934	0.076
853.5575	-0.1527
853.7217	0.559
853.8859	0.0069
854.05	-0.4024
854.2141	0.6811
854.3782	-0.3803
854.5423	-0.1244
854.7063	1.0231
854.8703	-0.0487
855.0343	0.1309
855.1983	0.1872
855.3623	-0.0389
855.5262	-0
855.6901	0.1881
855.854	0.1557
856.0179	-0.0833
856.1818	-0
856.3456	0.6085
856.5094	-0.7423
856.6732	-0
856.837	-0
857.0008	0.4001
857.1645	-0.3356
857.3282	-0.6173
857.4919	0.3398
857.6556	0.1511
857.8192	0.2098
857.9828	-0.308
858.1465	0.7188
858.31	-0
858.4736	-0.5335
858.6372	0.7355
858.8007	-0.1087
858.9642	0.4098
859.1277	-0
859.2911	-0.3441
859.4546	-0
859.618	0.2459
859.7814	-0.1973
859.9448	-0
860.1081	1.3617
860.2715	-0
860.4348	0.3985
860.5981	1.6239
860.7614	-0
860.9246	-0.0352
861.0879	0.2982
861.2511	-0
861.4143	-0
861.5774	-0.276
861.7406	0.8005
861.9037	-0
862.0668	-0.3127
862.2299	0.2972
862.393	-0
862.556	-0.4975
862.7191	-0.3686
862.8821	-0.0553
863.0451	0.0642
863.208	0.9485
863.371	-0
863.5339	0.4675
863.6968	-0
863.8597	-0
864.0225	0.3396
864.1854	-0
864.3482	-0.9573
864.511	0.265
864.6737	-0.1859
864.8365	-0.1069
864.9992	-0
865.1619	-0
865.3246	-1.7709
865.4873	-0
865.65	0.6724
865.8126	1.8932
865.9752	-0.205
866.1378	0.299
866.3004	0.4822
866.4629	-2.2091
866.6254	-0.3742
866.7879	-0.2233
866.9504	0.4634
867.1129	-0.2413
867.2753	-0.0875
867.4377	-0.325
867.6001	-0
867.7625	-0.122
867.9249	-0
868.0872	-0
868.2495	-0
868.4118	-0.3411
868.5741	-0
868.7363	-0
868.8986	0.1067
869.0608	0.1544
869.223	0.2628
869.3851	-0
869.5473	-0.2801
869.7094	-0.0475
869.8715	-0.8676
870.0336	0.1343
870.1957	-1.1252
870.3577	0.2914
870.5197	0.4588
870.6817	-0.7772
870.8437	0.4167
871.0057	0.7162
871.1676	0.3408
871.3295	-0
871.4914	-1.6253
871.6533	-0.297
871.8151	-0.062
871.977	0.3225
872.1388	-0
872.3006	-0
872.4623	-0.5123
872.6241	-0
872.7858	0.0978
872.9475	-0
873.1092	-0
873.2709	0.2194
873.4325	-0.7677
873.5941	-0
873.7557	-0
873.9173	-0.3029
874.0789	0.3142
874.2404	-0
874.4019	-0.0696
874.5634	-0
874.7249	0.1611
874.8863	-0.4082
875.0478	0.0299
875.2092	0.4005
875.3706	0.1276
875.5319	-0
875.6933	-0
875.8546	-0
876.0159	0.115
876.1772	1.3617
876.3385	-0
876.4997	-0
876.6609	0.1573
876.8221	1.2835
876.9833	-0.3448
877.1445	0.3411
877.3056	-0
877.4667	-1.0956
877.6278	-0
877.7889	-0.0684
877.9499	-0.0483
878.111	-0.5719
878.272	-0.2759
878.433	0.4475
878.5939	-0
878.7549	-0
878.9158	0.7765
879.0767	-0
879.2376	0.5662
879.3984	-0
879.5593	0.0409
879.7201	-1.6392
879.8809	0.092
880.0417	-0.1274
880.2024	0.2394
880.3632	-0.0302
880.5239	0.0023
880.6846	-0.5044
880.8452	-0.3487
881.0059	-0
881.1665	-0.2202
881.3271	0.7101
881.4877	0.6013
881.6483	-1.3876
881.8088	-0.7166
881.9693	-1.1179
882.1298	-1.1179
882.2903	-1.1179
