Data from D4ACN5uM440nmA_Absorbance_13-50-26-512.txt Node
Date: Fri Feb 21 13:50:26 GMT 2025
User: LASERRRRR
Spectrometer: FLMT03099
Trigger mode: 0
Integration Time (sec): 1.500000E-2
Scans to average: 1
Electric dark correction enabled: true
Nonlinearity correction enabled: false
Boxcar width: 0
XAxis mode: Wavelengths
Number of Pixels in Spectrum: 3648
>>>>>Begin Spectral Data<<<<<
179.3399	-0.5813
179.5586	-0.5813
179.7771	-0.5813
179.9957	-0.0185
180.2143	-0
180.4329	-0
180.6514	-0
180.8699	0.1255
181.0885	-0
181.307	0.2
181.5255	0.1139
181.744	-0
181.9625	0.1985
182.181	-0.177
182.3994	-0.2286
182.6179	0.3629
182.8363	-0
183.0547	-0
183.2732	0.1465
183.4916	0.2494
183.71	0.205
183.9284	0.0544
184.1467	0.2165
184.3651	0.0882
184.5835	0.2328
184.8018	0.2782
185.0201	0.7232
185.2385	0.2251
185.4568	0.386
185.6751	0.1716
185.8934	0.4387
186.1117	-0.1383
186.3299	0.2093
186.5482	0.3569
186.7664	0.2836
186.9847	-0.0197
187.2029	0.2335
187.4211	-0.118
187.6393	0.0565
187.8575	0.2159
188.0757	0.4875
188.2939	0.1074
188.512	0.6546
188.7302	0.2704
188.9483	0.4508
189.1665	0.7419
189.3846	0.4169
189.6027	0.1959
189.8208	0.3148
190.0389	0.326
190.257	0.0391
190.475	0.1946
190.6931	0.0618
190.9111	0.0663
191.1292	0.129
191.3472	0.1203
191.5652	0.2438
191.7832	0.1853
192.0012	0.1191
192.2192	0.2116
192.4371	0.0676
192.6551	0.1747
192.873	0.1863
193.091	0.1979
193.3089	0.2036
193.5268	0.1797
193.7447	0.3631
193.9626	0.0899
194.1805	0.3571
194.3984	0.3714
194.6162	0.268
194.8341	0.362
195.0519	0.2197
195.2697	0.2411
195.4875	0.2778
195.7054	0.3221
195.9231	0.2632
196.1409	0.2921
196.3587	0.2745
196.5765	0.3611
196.7942	0.4302
197.012	0.3681
197.2297	0.3374
197.4474	0.4034
197.6651	0.3442
197.8828	0.4233
198.1005	0.4206
198.3182	0.4025
198.5358	0.4332
198.7535	0.4331
198.9711	0.3733
199.1888	0.3487
199.4064	0.3839
199.624	0.3595
199.8416	0.3937
200.0592	0.3686
200.2767	0.4443
200.4943	0.4874
200.7119	0.3739
200.9294	0.4326
201.1469	0.4086
201.3645	0.4367
201.582	0.3791
201.7995	0.4254
202.017	0.3832
202.2344	0.4416
202.4519	0.3976
202.6694	0.3773
202.8868	0.4065
203.1042	0.4194
203.3217	0.405
203.5391	0.4022
203.7565	0.3538
203.9739	0.3342
204.1913	0.359
204.4086	0.368
204.626	0.3971
204.8433	0.406
205.0607	0.3805
205.278	0.366
205.4953	0.3478
205.7126	0.3631
205.9299	0.3742
206.1472	0.3319
206.3644	0.3503
206.5817	0.3218
206.7989	0.3346
207.0162	0.2892
207.2334	0.327
207.4506	0.2922
207.6678	0.2993
207.885	0.2837
208.1022	0.3052
208.3194	0.3
208.5365	0.289
208.7537	0.2993
208.9708	0.2978
209.1879	0.3019
209.405	0.2726
209.6222	0.262
209.8392	0.3113
210.0563	0.2856
210.2734	0.2713
210.4905	0.2854
210.7075	0.2673
210.9245	0.2716
211.1416	0.2692
211.3586	0.2486
211.5756	0.2482
211.7926	0.2768
212.0096	0.2782
212.2265	0.2493
212.4435	0.2602
212.6604	0.2709
212.8774	0.2524
213.0943	0.2565
213.3112	0.2722
213.5281	0.2462
213.745	0.2213
213.9619	0.242
214.1788	0.2612
214.3956	0.2217
214.6125	0.2426
214.8293	0.2459
215.0461	0.2443
215.2629	0.2609
215.4798	0.2568
215.6965	0.2632
215.9133	0.2329
216.1301	0.2432
216.3469	0.2462
216.5636	0.2502
216.7803	0.2595
216.9971	0.2512
217.2138	0.2578
217.4305	0.2444
217.6472	0.2363
217.8639	0.251
218.0805	0.2586
218.2972	0.2325
218.5138	0.2352
218.7305	0.2603
218.9471	0.2405
219.1637	0.2651
219.3803	0.2664
219.5969	0.2434
219.8135	0.2615
220.0301	0.2583
220.2466	0.2565
220.4632	0.2363
220.6797	0.2564
220.8962	0.2484
221.1127	0.2693
221.3292	0.2546
221.5457	0.2659
221.7622	0.266
221.9787	0.2822
222.1951	0.2667
222.4116	0.2688
222.628	0.2777
222.8444	0.2742
223.0608	0.2899
223.2772	0.2789
223.4936	0.28
223.71	0.2857
223.9264	0.284
224.1427	0.2929
224.3591	0.2885
224.5754	0.2947
224.7917	0.2897
225.008	0.288
225.2243	0.2932
225.4406	0.3011
225.6569	0.3201
225.8732	0.3065
226.0894	0.3089
226.3057	0.3044
226.5219	0.303
226.7381	0.3112
226.9543	0.3166
227.1705	0.3244
227.3867	0.3239
227.6029	0.3112
227.8191	0.3405
228.0352	0.3436
228.2513	0.3463
228.4675	0.3461
228.6836	0.3494
228.8997	0.3462
229.1158	0.3509
229.3319	0.3587
229.548	0.3456
229.764	0.3652
229.9801	0.393
230.1961	0.3628
230.4121	0.3695
230.6282	0.3904
230.8442	0.3852
231.0602	0.3835
231.2761	0.3864
231.4921	0.3887
231.7081	0.3888
231.924	0.3871
232.14	0.4131
232.3559	0.4084
232.5718	0.4136
232.7877	0.4059
233.0036	0.4108
233.2195	0.4133
233.4353	0.4155
233.6512	0.4245
233.867	0.4158
234.0829	0.4202
234.2987	0.4194
234.5145	0.4424
234.7303	0.4233
234.9461	0.4397
235.1619	0.435
235.3776	0.4434
235.5934	0.4304
235.8091	0.4455
236.0249	0.4468
236.2406	0.437
236.4563	0.4439
236.672	0.4464
236.8877	0.4543
237.1034	0.4479
237.319	0.4488
237.5347	0.4493
237.7503	0.4461
237.966	0.4666
238.1816	0.4506
238.3972	0.4654
238.6128	0.4632
238.8284	0.4607
239.0439	0.454
239.2595	0.4609
239.475	0.4567
239.6906	0.4605
239.9061	0.4669
240.1216	0.4644
240.3371	0.4558
240.5526	0.4578
240.7681	0.4594
240.9836	0.4596
241.199	0.4545
241.4145	0.4504
241.6299	0.4473
241.8453	0.4384
242.0607	0.4375
242.2761	0.4403
242.4915	0.4258
242.7069	0.419
242.9223	0.4264
243.1376	0.4028
243.353	0.4035
243.5683	0.4115
243.7836	0.3979
243.9989	0.3894
244.2142	0.3756
244.4295	0.3788
244.6448	0.374
244.86	0.3574
245.0753	0.3502
245.2905	0.3447
245.5057	0.3395
245.721	0.3481
245.9362	0.3327
246.1514	0.3241
246.3665	0.3158
246.5817	0.3069
246.7969	0.2962
247.012	0.3
247.2271	0.3052
247.4423	0.2906
247.6574	0.2881
247.8725	0.2778
248.0876	0.2723
248.3026	0.2774
248.5177	0.2626
248.7328	0.2549
248.9478	0.2572
249.1628	0.2495
249.3779	0.2455
249.5929	0.2407
249.8079	0.2343
250.0228	0.2347
250.2378	0.231
250.4528	0.2266
250.6677	0.224
250.8827	0.2168
251.0976	0.217
251.3125	0.2163
251.5274	0.2125
251.7423	0.2031
251.9572	0.2079
252.172	0.2091
252.3869	0.207
252.6017	0.2018
252.8166	0.1986
253.0314	0.202
253.2462	0.2018
253.461	0.1989
253.6758	0.2014
253.8906	0.1923
254.1053	0.1959
254.3201	0.1929
254.5348	0.1861
254.7496	0.1845
254.9643	0.1876
255.179	0.1852
255.3937	0.193
255.6083	0.1863
255.823	0.1887
256.0377	0.1816
256.2523	0.185
256.467	0.1863
256.6816	0.1842
256.8962	0.1854
257.1108	0.1814
257.3254	0.1856
257.54	0.1751
257.7545	0.1859
257.9691	0.1792
258.1836	0.1797
258.3981	0.1786
258.6127	0.1767
258.8272	0.1839
259.0417	0.1743
259.2561	0.1741
259.4706	0.1773
259.6851	0.1777
259.8995	0.1753
260.114	0.1785
260.3284	0.1786
260.5428	0.176
260.7572	0.1737
260.9716	0.1853
261.186	0.1796
261.4003	0.1752
261.6147	0.179
261.829	0.1815
262.0433	0.1748
262.2577	0.1773
262.472	0.1774
262.6863	0.1866
262.9005	0.1827
263.1148	0.1789
263.3291	0.1858
263.5433	0.1846
263.7576	0.1782
263.9718	0.1837
264.186	0.1829
264.4002	0.1834
264.6144	0.189
264.8286	0.1835
265.0427	0.186
265.2569	0.1846
265.471	0.1873
265.6851	0.189
265.8993	0.1828
266.1134	0.1856
266.3275	0.1865
266.5415	0.1866
266.7556	0.1925
266.9697	0.1885
267.1837	0.1877
267.3978	0.1816
267.6118	0.1807
267.8258	0.1906
268.0398	0.1881
268.2538	0.1923
268.4677	0.1825
268.6817	0.1904
268.8957	0.1762
269.1096	0.1779
269.3235	0.178
269.5374	0.1843
269.7514	0.1844
269.9652	0.1813
270.1791	0.18
270.393	0.1821
270.6068	0.1812
270.8207	0.1814
271.0345	0.1756
271.2483	0.1731
271.4622	0.1859
271.676	0.1773
271.8897	0.1782
272.1035	0.1813
272.3173	0.1812
272.531	0.1739
272.7448	0.1803
272.9585	0.1695
273.1722	0.1778
273.3859	0.1806
273.5996	0.1813
273.8133	0.1892
274.0269	0.183
274.2406	0.1785
274.4542	0.1859
274.6679	0.1887
274.8815	0.1901
275.0951	0.1926
275.3087	0.1941
275.5223	0.1806
275.7358	0.1936
275.9494	0.1929
276.1629	0.194
276.3765	0.1932
276.59	0.1859
276.8035	0.1886
277.017	0.199
277.2305	0.1954
277.444	0.1902
277.6574	0.1962
277.8709	0.1985
278.0843	0.1956
278.2978	0.1962
278.5112	0.1947
278.7246	0.1877
278.938	0.1932
279.1513	0.1997
279.3647	0.1896
279.5781	0.1923
279.7914	0.1927
280.0047	0.192
280.2181	0.1923
280.4314	0.1911
280.6447	0.1957
280.8579	0.1848
281.0712	0.1846
281.2845	0.189
281.4977	0.1926
281.711	0.1816
281.9242	0.1851
282.1374	0.1852
282.3506	0.1893
282.5638	0.1862
282.7769	0.183
282.9901	0.1894
283.2033	0.1897
283.4164	0.1856
283.6295	0.1826
283.8426	0.1849
284.0557	0.1891
284.2688	0.1874
284.4819	0.1827
284.695	0.1906
284.908	0.1843
285.1211	0.1833
285.3341	0.1834
285.5471	0.1861
285.7601	0.1846
285.9731	0.1894
286.1861	0.1872
286.3991	0.1896
286.612	0.1853
286.825	0.1885
287.0379	0.1875
287.2508	0.1903
287.4637	0.1903
287.6766	0.1899
287.8895	0.19
288.1024	0.1889
288.3152	0.1872
288.5281	0.1873
288.7409	0.1912
288.9538	0.1869
289.1666	0.191
289.3794	0.1841
289.5922	0.1847
289.8049	0.188
290.0177	0.1841
290.2304	0.1851
290.4432	0.1961
290.6559	0.1877
290.8686	0.1839
291.0813	0.1813
291.294	0.1908
291.5067	0.1861
291.7194	0.1887
291.932	0.1802
292.1447	0.1896
292.3573	0.187
292.5699	0.1901
292.7825	0.1836
292.9951	0.1918
293.2077	0.1838
293.4203	0.1858
293.6328	0.1858
293.8454	0.1857
294.0579	0.1834
294.2704	0.1887
294.4829	0.1852
294.6954	0.1904
294.9079	0.185
295.1204	0.1837
295.3328	0.1919
295.5453	0.1866
295.7577	0.1833
295.9701	0.1878
296.1825	0.1877
296.3949	0.1843
296.6073	0.1784
296.8197	0.1836
297.0321	0.1901
297.2444	0.1813
297.4567	0.1893
297.6691	0.1806
297.8814	0.1869
298.0937	0.1865
298.306	0.1844
298.5182	0.1872
298.7305	0.1903
298.9428	0.1853
299.155	0.1812
299.3672	0.1802
299.5794	0.1869
299.7916	0.188
300.0038	0.1866
300.216	0.1809
300.4282	0.1847
300.6403	0.1877
300.8525	0.1868
301.0646	0.1916
301.2767	0.1864
301.4888	0.1878
301.7009	0.188
301.913	0.1868
302.125	0.181
302.3371	0.1819
302.5491	0.1899
302.7612	0.193
302.9732	0.1921
303.1852	0.1857
303.3972	0.1873
303.6092	0.185
303.8211	0.189
304.0331	0.1817
304.245	0.181
304.457	0.1825
304.6689	0.1839
304.8808	0.1791
305.0927	0.1864
305.3046	0.1798
305.5164	0.1789
305.7283	0.1802
305.9401	0.1696
306.152	0.1781
306.3638	0.1806
306.5756	0.181
306.7874	0.1771
306.9992	0.1732
307.2109	0.1698
307.4227	0.1703
307.6344	0.1728
307.8462	0.1647
308.0579	0.1673
308.2696	0.1691
308.4813	0.1652
308.693	0.1638
308.9046	0.1596
309.1163	0.1662
309.328	0.1582
309.5396	0.1597
309.7512	0.1525
309.9628	0.1535
310.1744	0.1523
310.386	0.1468
310.5976	0.1501
310.8091	0.1487
311.0207	0.149
311.2322	0.1477
311.4437	0.1477
311.6552	0.1453
311.8667	0.1539
312.0782	0.1461
312.2897	0.1446
312.5012	0.143
312.7126	0.1343
312.924	0.1407
313.1355	0.1409
313.3469	0.14
313.5583	0.1364
313.7696	0.137
313.981	0.1444
314.1924	0.1353
314.4037	0.1374
314.6151	0.1354
314.8264	0.1403
315.0377	0.1383
315.249	0.1426
315.4603	0.1301
315.6716	0.1374
315.8828	0.1374
316.0941	0.1356
316.3053	0.1341
316.5165	0.1341
316.7277	0.1364
316.9389	0.1362
317.1501	0.1313
317.3613	0.1316
317.5724	0.1376
317.7836	0.128
317.9947	0.1244
318.2058	0.1324
318.417	0.1258
318.6281	0.1242
318.8391	0.1317
319.0502	0.1405
319.2613	0.1321
319.4723	0.1263
319.6834	0.1321
319.8944	0.1282
320.1054	0.1312
320.3164	0.1257
320.5274	0.1258
320.7383	0.1372
320.9493	0.1264
321.1602	0.1297
321.3712	0.1316
321.5821	0.1292
321.793	0.1408
322.0039	0.1289
322.2148	0.132
322.4257	0.1308
322.6365	0.1248
322.8474	0.1342
323.0582	0.1386
323.269	0.1331
323.4798	0.1331
323.6906	0.1273
323.9014	0.1371
324.1122	0.1285
324.3229	0.1303
324.5337	0.1374
324.7444	0.1336
324.9551	0.1293
325.1658	0.1288
325.3765	0.1291
325.5872	0.1318
325.7979	0.1347
326.0085	0.1311
326.2192	0.1302
326.4298	0.1362
326.6404	0.1393
326.851	0.1378
327.0616	0.1385
327.2722	0.1413
327.4828	0.1381
327.6933	0.1373
327.9039	0.1368
328.1144	0.14
328.3249	0.1399
328.5354	0.1429
328.7459	0.1397
328.9564	0.1402
329.1669	0.1432
329.3773	0.1416
329.5878	0.1441
329.7982	0.1433
330.0086	0.1412
330.219	0.1379
330.4294	0.1464
330.6398	0.145
330.8502	0.1449
331.0605	0.1414
331.2708	0.1335
331.4812	0.144
331.6915	0.1441
331.9018	0.1397
332.1121	0.1526
332.3224	0.1419
332.5326	0.1386
332.7429	0.1438
332.9531	0.1503
333.1633	0.1428
333.3735	0.1379
333.5837	0.1433
333.7939	0.1423
334.0041	0.1445
334.2143	0.1494
334.4244	0.155
334.6346	0.1506
334.8447	0.1452
335.0548	0.1471
335.2649	0.1469
335.475	0.151
335.685	0.1442
335.8951	0.1418
336.1051	0.1448
336.3152	0.1465
336.5252	0.1485
336.7352	0.1409
336.9452	0.145
337.1552	0.1459
337.3652	0.1428
337.5751	0.1457
337.7851	0.1412
337.995	0.1485
338.2049	0.1478
338.4148	0.146
338.6247	0.1463
338.8346	0.1486
339.0445	0.15
339.2543	0.143
339.4642	0.1488
339.674	0.1483
339.8838	0.1517
340.0936	0.1476
340.3034	0.1481
340.5132	0.1418
340.7229	0.1505
340.9327	0.1557
341.1424	0.1525
341.3522	0.15
341.5619	0.1509
341.7716	0.1529
341.9813	0.157
342.1909	0.1585
342.4006	0.1535
342.6102	0.156
342.8199	0.152
343.0295	0.1508
343.2391	0.158
343.4487	0.1612
343.6583	0.1647
343.8679	0.1579
344.0774	0.1573
344.287	0.156
344.4965	0.1626
344.706	0.1632
344.9155	0.1663
345.125	0.1594
345.3345	0.1721
345.544	0.1636
345.7534	0.1629
345.9629	0.1708
346.1723	0.1699
346.3817	0.1691
346.5911	0.1668
346.8005	0.172
347.0099	0.1671
347.2193	0.1743
347.4286	0.1798
347.638	0.1762
347.8473	0.1776
348.0566	0.1728
348.2659	0.1778
348.4752	0.1795
348.6845	0.1756
348.8937	0.18
349.103	0.1783
349.3122	0.1765
349.5214	0.188
349.7306	0.1859
349.9398	0.1805
350.149	0.1814
350.3582	0.1727
350.5674	0.1749
350.7765	0.1879
350.9856	0.173
351.1948	0.177
351.4039	0.1897
351.613	0.1836
351.822	0.1822
352.0311	0.189
352.2402	0.1882
352.4492	0.1823
352.6582	0.1868
352.8672	0.1824
353.0762	0.1839
353.2852	0.1825
353.4942	0.1912
353.7032	0.1842
353.9121	0.1802
354.1211	0.1883
354.33	0.1921
354.5389	0.1791
354.7478	0.1826
354.9567	0.191
355.1655	0.1807
355.3744	0.1793
355.5833	0.179
355.7921	0.1899
356.0009	0.1854
356.2097	0.1867
356.4185	0.1811
356.6273	0.1818
356.8361	0.1899
357.0448	0.1827
357.2536	0.1848
357.4623	0.1912
357.671	0.19
357.8797	0.1902
358.0884	0.1891
358.2971	0.1802
358.5057	0.1935
358.7144	0.1874
358.923	0.1915
359.1316	0.1908
359.3402	0.1887
359.5488	0.1944
359.7574	0.1988
359.966	0.1976
360.1746	0.1906
360.3831	0.2009
360.5916	0.1998
360.8002	0.2018
361.0087	0.1965
361.2172	0.2005
361.4256	0.2041
361.6341	0.2014
361.8426	0.2034
362.051	0.207
362.2594	0.1966
362.4678	0.2097
362.6762	0.2048
362.8846	0.2014
363.093	0.2042
363.3014	0.2106
363.5097	0.2075
363.718	0.2117
363.9264	0.2135
364.1347	0.2125
364.343	0.2149
364.5513	0.209
364.7595	0.2203
364.9678	0.2054
365.176	0.2182
365.3842	0.22
365.5925	0.2155
365.8007	0.2205
366.0089	0.2205
366.217	0.222
366.4252	0.2166
366.6333	0.2252
366.8415	0.2277
367.0496	0.2211
367.2577	0.2241
367.4658	0.2178
367.6739	0.2202
367.882	0.2291
368.09	0.224
368.2981	0.2324
368.5061	0.2251
368.7141	0.2215
368.9221	0.2377
369.1301	0.2364
369.3381	0.2358
369.5461	0.2377
369.754	0.2324
369.962	0.2294
370.1699	0.2335
370.3778	0.2441
370.5857	0.2326
370.7936	0.2389
371.0015	0.2301
371.2093	0.2369
371.4172	0.2361
371.625	0.244
371.8328	0.238
372.0406	0.2476
372.2484	0.2461
372.4562	0.2392
372.664	0.2468
372.8717	0.2452
373.0795	0.2428
373.2872	0.2478
373.4949	0.2454
373.7026	0.243
373.9103	0.2446
374.118	0.2456
374.3256	0.2508
374.5333	0.2519
374.7409	0.2484
374.9485	0.2469
375.1561	0.2434
375.3637	0.2481
375.5713	0.2551
375.7789	0.2479
375.9864	0.2497
376.194	0.2513
376.4015	0.2603
376.609	0.2549
376.8165	0.2611
377.024	0.2583
377.2315	0.2518
377.4389	0.2488
377.6464	0.2701
377.8538	0.2576
378.0612	0.2539
378.2686	0.2688
378.476	0.2602
378.6834	0.2715
378.8908	0.2687
379.0981	0.2591
379.3055	0.2615
379.5128	0.2489
379.7201	0.266
379.9274	0.2624
380.1347	0.2651
380.342	0.2752
380.5492	0.2641
380.7565	0.2625
380.9637	0.2691
381.1709	0.263
381.3781	0.2822
381.5853	0.2667
381.7925	0.2694
381.9997	0.2711
382.2068	0.2713
382.4139	0.2752
382.6211	0.2731
382.8282	0.2758
383.0353	0.2782
383.2424	0.2687
383.4494	0.2676
383.6565	0.2745
383.8635	0.2682
384.0706	0.2749
384.2776	0.2755
384.4846	0.2755
384.6916	0.2749
384.8986	0.2753
385.1055	0.2869
385.3125	0.2827
385.5194	0.2722
385.7263	0.2765
385.9333	0.2713
386.1402	0.2721
386.347	0.268
386.5539	0.2807
386.7608	0.273
386.9676	0.2798
387.1744	0.2798
387.3813	0.2739
387.5881	0.2752
387.7948	0.2838
388.0016	0.2911
388.2084	0.2717
388.4151	0.2754
388.6219	0.2716
388.8286	0.267
389.0353	0.2727
389.242	0.273
389.4487	0.2674
389.6553	0.2658
389.862	0.2675
390.0686	0.2784
390.2753	0.2759
390.4819	0.2679
390.6885	0.2714
390.8951	0.2697
391.1016	0.2715
391.3082	0.2666
391.5147	0.2684
391.7213	0.2675
391.9278	0.2602
392.1343	0.2687
392.3408	0.2637
392.5473	0.2623
392.7537	0.2617
392.9602	0.2524
393.1666	0.2618
393.373	0.246
393.5794	0.2625
393.7858	0.2518
393.9922	0.2505
394.1986	0.2486
394.4049	0.2562
394.6113	0.2558
394.8176	0.2525
395.0239	0.2536
395.2302	0.2479
395.4365	0.2439
395.6428	0.2477
395.8491	0.2546
396.0553	0.2383
396.2615	0.2482
396.4678	0.249
396.674	0.236
396.8802	0.2454
397.0863	0.2296
397.2925	0.2441
397.4987	0.2376
397.7048	0.2388
397.9109	0.243
398.117	0.2427
398.3231	0.2401
398.5292	0.2363
398.7353	0.237
398.9413	0.2408
399.1474	0.2373
399.3534	0.2331
399.5594	0.2352
399.7654	0.2305
399.9714	0.2356
400.1774	0.2313
400.3833	0.2353
400.5893	0.2312
400.7952	0.2398
401.0011	0.2365
401.207	0.2372
401.4129	0.2291
401.6188	0.2339
401.8247	0.2346
402.0305	0.2319
402.2364	0.2373
402.4422	0.2326
402.648	0.2343
402.8538	0.2271
403.0596	0.2293
403.2654	0.2319
403.4711	0.2375
403.6768	0.2294
403.8826	0.232
404.0883	0.2369
404.294	0.2432
404.4997	0.2325
404.7054	0.2335
404.911	0.2435
405.1167	0.2354
405.3223	0.2287
405.5279	0.2352
405.7335	0.2308
405.9391	0.2219
406.1447	0.2336
406.3502	0.2366
406.5558	0.2213
406.7613	0.2366
406.9668	0.2274
407.1724	0.232
407.3778	0.2237
407.5833	0.216
407.7888	0.2385
407.9942	0.2301
408.1997	0.2263
408.4051	0.2335
408.6105	0.2365
408.8159	0.225
409.0213	0.2419
409.2267	0.2345
409.432	0.2433
409.6374	0.232
409.8427	0.2336
410.048	0.2305
410.2533	0.2321
410.4586	0.227
410.6639	0.2426
410.8691	0.2282
411.0744	0.2303
411.2796	0.2307
411.4848	0.2341
411.69	0.2263
411.8952	0.229
412.1004	0.2316
412.3056	0.2165
412.5107	0.2349
412.7158	0.2363
412.921	0.2385
413.1261	0.2343
413.3312	0.2283
413.5362	0.2424
413.7413	0.2285
413.9464	0.2262
414.1514	0.2191
414.3564	0.2273
414.5614	0.2276
414.7664	0.2309
414.9714	0.2202
415.1764	0.2325
415.3813	0.2229
415.5863	0.2283
415.7912	0.2291
415.9961	0.2256
416.201	0.2321
416.4059	0.2273
416.6108	0.2286
416.8156	0.2254
417.0205	0.244
417.2253	0.2221
417.4301	0.2204
417.6349	0.2177
417.8397	0.2153
418.0445	0.2197
418.2492	0.2147
418.454	0.2207
418.6587	0.2236
418.8634	0.2258
419.0681	0.2202
419.2728	0.2171
419.4775	0.2329
419.6822	0.2174
419.8868	0.2128
420.0915	0.2239
420.2961	0.2177
420.5007	0.2229
420.7053	0.2058
420.9099	0.2121
421.1144	0.2097
421.319	0.2037
421.5235	0.2041
421.728	0.2212
421.9325	0.217
422.137	0.2052
422.3415	0.2088
422.546	0.2048
422.7504	0.2113
422.9549	0.2147
423.1593	0.202
423.3637	0.2049
423.5681	0.2109
423.7725	0.197
423.9769	0.2052
424.1812	0.1954
424.3856	0.1951
424.5899	0.2036
424.7942	0.2015
424.9985	0.207
425.2028	0.2131
425.4071	0.2047
425.6113	0.1926
425.8156	0.194
426.0198	0.2074
426.224	0.199
426.4282	0.184
426.6324	0.1946
426.8366	0.1832
427.0407	0.1961
427.2449	0.1866
427.449	0.1909
427.6531	0.1935
427.8572	0.1952
428.0613	0.194
428.2654	0.1857
428.4694	0.1792
428.6735	0.1849
428.8775	0.185
429.0815	0.1814
429.2855	0.1665
429.4895	0.1703
429.6935	0.181
429.8975	0.1714
430.1014	0.1749
430.3053	0.1793
430.5093	0.175
430.7132	0.1627
430.9171	0.1626
431.1209	0.1735
431.3248	0.1537
431.5286	0.1576
431.7325	0.1665
431.9363	0.1569
432.1401	0.1623
432.3439	0.1607
432.5477	0.1612
432.7514	0.1546
432.9552	0.1492
433.1589	0.1407
433.3627	0.1511
433.5664	0.1552
433.7701	0.1439
433.9737	0.1454
434.1774	0.1387
434.3811	0.1368
434.5847	0.1448
434.7883	0.1387
434.9919	0.1351
435.1955	0.1396
435.3991	0.1418
435.6027	0.1338
435.8062	0.1477
436.0098	0.1245
436.2133	0.135
436.4168	0.1315
436.6203	0.1212
436.8238	0.1222
437.0272	0.1283
437.2307	0.1177
437.4341	0.1196
437.6375	0.1219
437.841	0.1101
438.0443	0.1291
438.2477	0.1063
438.4511	0.1059
438.6545	0.1126
438.8578	0.1053
439.0611	0.1147
439.2644	0.1083
439.4677	0.107
439.671	0.0936
439.8743	0.1086
440.0775	0.0982
440.2808	0.0978
440.484	0.0941
440.6872	0.0981
440.8904	0.0977
441.0936	0.0936
441.2967	0.0861
441.4999	0.0861
441.703	0.0919
441.9062	0.0873
442.1093	0.0943
442.3124	0.0804
442.5155	0.0865
442.7185	0.0807
442.9216	0.0845
443.1246	0.0801
443.3276	0.0827
443.5307	0.0738
443.7337	0.0904
443.9366	0.0753
444.1396	0.075
444.3426	0.0746
444.5455	0.0722
444.7484	0.0705
444.9513	0.0721
445.1542	0.0698
445.3571	0.0653
445.56	0.0648
445.7628	0.0665
445.9657	0.0685
446.1685	0.0637
446.3713	0.063
446.5741	0.0733
446.7769	0.056
446.9797	0.0643
447.1824	0.0641
447.3852	0.0532
447.5879	0.0588
447.7906	0.0495
447.9933	0.0569
448.196	0.0526
448.3986	0.0474
448.6013	0.0387
448.8039	0.0478
449.0066	0.059
449.2092	0.0545
449.4118	0.0513
449.6143	0.0522
449.8169	0.0536
450.0195	0.048
450.222	0.0425
450.4245	0.0475
450.627	0.0388
450.8295	0.042
451.032	0.0388
451.2345	0.0462
451.4369	0.0365
451.6394	0.0329
451.8418	0.0389
452.0442	0.0416
452.2466	0.0212
452.449	0.0377
452.6513	0.026
452.8537	0.0229
453.056	0.0308
453.2583	0.0264
453.4607	0.0282
453.663	0.0373
453.8652	0.0236
454.0675	0.037
454.2697	0.0289
454.472	0.0312
454.6742	0.0281
454.8764	0.0308
455.0786	0.0282
455.2808	0.025
455.4829	0.0274
455.6851	0.0199
455.8872	0.0183
456.0893	0.0322
456.2915	0.0258
456.4935	0.0316
456.6956	0.0189
456.8977	0.0188
457.0997	0.0307
457.3018	0.0198
457.5038	0.0313
457.7058	0.0282
457.9078	0.0238
458.1098	0.0269
458.3117	0.0326
458.5137	0.0074
458.7156	0.0141
458.9175	0.0225
459.1194	0.0239
459.3213	0.0153
459.5232	0.0205
459.725	0.0244
459.9269	0.0188
460.1287	0.0144
460.3305	0.027
460.5323	0.0171
460.7341	0.0221
460.9359	0.0081
461.1376	0.0219
461.3394	0.0143
461.5411	0.0164
461.7428	0.0139
461.9445	0.0196
462.1462	0.0108
462.3479	0.0113
462.5495	0.0169
462.7512	0.031
462.9528	0.0145
463.1544	0.0097
463.356	0.0114
463.5576	0.0149
463.7592	0.0079
463.9607	0.0192
464.1623	0.0146
464.3638	0.0064
464.5653	0.0102
464.7668	0.017
464.9683	0.0053
465.1697	0.0079
465.3712	0.0052
465.5726	0.007
465.7741	0.0117
465.9755	0.0045
466.1769	0.0098
466.3782	0.0047
466.5796	0.0077
466.7809	0.0103
466.9823	0.0095
467.1836	0.0139
467.3849	0.0146
467.5862	0.0079
467.7875	0.0091
467.9887	0.0121
468.19	0.0127
468.3912	0.0178
468.5924	0.0044
468.7936	0.008
468.9948	0.0025
469.196	0.0093
469.3972	-0.0058
469.5983	0.0066
469.7994	0.0093
470.0006	0.0065
470.2017	0.0043
470.4027	0.0113
470.6038	0.0094
470.8049	0.0044
471.0059	0.0144
471.2069	0.0062
471.408	0.0131
471.6089	0.0083
471.8099	0.009
472.0109	0.0084
472.2119	0.0136
472.4128	-0.0015
472.6137	0.0049
472.8146	0.0074
473.0155	0.0156
473.2164	0.0124
473.4173	-0.0004
473.6181	-0.0009
473.819	0.0037
474.0198	0.003
474.2206	0
474.4214	0.0102
474.6222	-0.0019
474.8229	0.0071
475.0237	0.0121
475.2244	0.0066
475.4251	0.006
475.6258	0.0019
475.8265	0.0108
476.0272	0.0056
476.2278	0.0111
476.4285	0.0062
476.6291	0.0055
476.8297	0.0027
477.0303	-0.0006
477.2309	0.009
477.4315	0.0062
477.632	0.0018
477.8326	0.003
478.0331	0.01
478.2336	0.0088
478.4341	0.0048
478.6346	-0.0005
478.8351	0.0029
479.0355	0.0051
479.236	0.0096
479.4364	0.0016
479.6368	0.003
479.8372	-0.0031
480.0376	0.0033
480.2379	0.0077
480.4383	0.0087
480.6386	0.0007
480.8389	0.0012
481.0392	0.0063
481.2395	0.0072
481.4398	0.0078
481.6401	0.0084
481.8403	0.0023
482.0405	0.0005
482.2408	-0.001
482.441	0.0022
482.6411	0.0099
482.8413	-0.0008
483.0415	0.0117
483.2416	0.0011
483.4417	0.0033
483.6419	0.003
483.8419	0.0044
484.042	0.0005
484.2421	-0.0008
484.4422	0.0048
484.6422	0.0028
484.8422	-0.0004
485.0422	0.0055
485.2422	0.0018
485.4422	0.0017
485.6422	0.0043
485.8421	0.0044
486.042	0.0073
486.242	-0.0006
486.4419	0.0033
486.6417	0.002
486.8416	0.008
487.0415	0.0028
487.2413	0.0052
487.4411	0.0098
487.641	-0.0032
487.8408	0.0065
488.0405	0.0129
488.2403	-0.0018
488.4401	0.0016
488.6398	-0
488.8395	0.0051
489.0392	0.0006
489.2389	0.0093
489.4386	-0.0056
489.6383	0.0043
489.8379	-0.0044
490.0376	0.0083
490.2372	-0.0038
490.4368	0.0015
490.6364	-0.0058
490.836	-0.0046
491.0355	-0.0036
491.2351	-0.0025
491.4346	-0.0012
491.6341	-0.0013
491.8336	0.0034
492.0331	-0.001
492.2326	0.0034
492.432	0.0087
492.6315	0.0069
492.8309	0.0008
493.0303	0.001
493.2297	0.0069
493.4291	-0.0026
493.6284	0.0145
493.8278	-0.0001
494.0271	0.0012
494.2264	0.0003
494.4257	0.0081
494.625	0.0037
494.8243	-0.0075
495.0236	0.0093
495.2228	0.0037
495.422	0.0016
495.6213	0.0031
495.8205	-0.0014
496.0196	-0.0003
496.2188	0.0023
496.418	0.0013
496.6171	0.0015
496.8162	0.0055
497.0153	0.0085
497.2144	0.0085
497.4135	0
497.6126	0.0002
497.8116	0.0015
498.0107	0.004
498.2097	0.01
498.4087	-0.0011
498.6077	-0.0092
498.8067	0.0073
499.0056	-0.0092
499.2046	0.0076
499.4035	0.0071
499.6024	0.0003
499.8013	0.0077
500.0002	-0.0025
500.199	0.0085
500.3979	-0.0086
500.5967	0.0004
500.7956	0.0015
500.9944	-0.0029
501.1932	0.0057
501.3919	0.006
501.5907	0.0074
501.7895	-0.0057
501.9882	-0.0027
502.1869	0.0073
502.3856	0.0026
502.5843	0.0053
502.783	-0.0017
502.9816	0.0077
503.1803	0.0027
503.3789	0.0064
503.5775	-0.0029
503.7761	0.0016
503.9747	0.0059
504.1732	-0.0039
504.3718	0.0111
504.5703	0.0025
504.7689	-0.0066
504.9674	-0.0016
505.1658	0.0047
505.3643	0.0016
505.5628	0.0038
505.7612	0.0088
505.9597	-0.0035
506.1581	0.0049
506.3565	-0.0015
506.5549	-0.0001
506.7532	-0.0064
506.9516	0.0002
507.1499	0.0023
507.3482	-0.0033
507.5465	-0.0004
507.7448	-0.0025
507.9431	0.0049
508.1414	-0.0002
508.3396	0.0024
508.5379	-0.0057
508.7361	0.0028
508.9343	0.0073
509.1325	0.0053
509.3306	0.0032
509.5288	-0.0113
509.7269	0.0069
509.9251	-0.0018
510.1232	-0.0025
510.3213	0.0091
510.5193	-0.0058
510.7174	-0.0028
510.9154	0.0004
511.1135	0.0053
511.3115	0.0058
511.5095	0.0021
511.7075	-0.0005
511.9055	0.0032
512.1034	0.0008
512.3014	-0.0018
512.4993	0.0114
512.6972	-0.0028
512.8951	0.0069
513.093	0.0006
513.2908	0.0062
513.4887	-0.0032
513.6865	0.0027
513.8844	0.0021
514.0822	0.0052
514.2799	-0.0086
514.4777	-0.0132
514.6755	-0.0065
514.8732	-0.0098
515.0709	0.0049
515.2687	0.0004
515.4664	-0.0031
515.664	0.0074
515.8617	0.0039
516.0594	-0.0014
516.257	0.0016
516.4546	0.0144
516.6522	0.0059
516.8498	0.0038
517.0474	0.004
517.2449	0.0081
517.4425	-0.0013
517.64	0.0001
517.8375	0.0046
518.035	-0.0058
518.2325	-0.0044
518.43	-0.0056
518.6274	-0.0055
518.8249	-0.0096
519.0223	0.0079
519.2197	-0.0062
519.4171	-0.0004
519.6145	0.0027
519.8118	-0.0088
520.0092	-0.0091
520.2065	0.0174
520.4038	-0.0104
520.6011	-0.0003
520.7984	0.0029
520.9956	0.0075
521.1929	0.0032
521.3901	0.0113
521.5874	0.0057
521.7846	-0.0016
521.9818	0.0105
522.1789	-0.0067
522.3761	0.0027
522.5732	0.0043
522.7704	-0.0008
522.9675	-0.0059
523.1646	-0.0121
523.3617	0.0077
523.5587	-0.0036
523.7558	-0.0118
523.9528	0.0081
524.1498	-0.0028
524.3468	-0.0005
524.5438	-0.0013
524.7408	0.0013
524.9378	0.0004
525.1347	0.0051
525.3316	0.0011
525.5285	0.0036
525.7254	0.0065
525.9223	0.0097
526.1192	0.0025
526.316	0.0064
526.5129	0.0141
526.7097	-0.0057
526.9065	0.0015
527.1033	0.0074
527.3	-0.0037
527.4968	0.0072
527.6935	-0.0008
527.8903	-0.0118
528.087	-0.0018
528.2837	0.0043
528.4804	0.0026
528.677	0.0088
528.8737	-0.0069
529.0703	0.0002
529.2669	-0.0002
529.4635	0.0032
529.6601	-0.0104
529.8567	-0.0052
530.0532	-0.0067
530.2498	0.0034
530.4463	-0.002
530.6428	0.0004
530.8393	0.0061
531.0358	0.0035
531.2322	0.002
531.4287	-0.0058
531.6251	-0.0134
531.8215	-0.0115
532.0179	-0.0044
532.2143	0.0076
532.4107	0.0071
532.607	-0.0033
532.8034	-0.0027
532.9997	0.0015
533.196	-0.0084
533.3923	0.0146
533.5886	0.0122
533.7848	-0.0014
533.9811	0.0014
534.1773	0.0042
534.3735	0.0027
534.5697	0.0024
534.7659	0.0045
534.9621	0.0014
535.1582	0.0077
535.3544	0.001
535.5505	0.0051
535.7466	0.0014
535.9427	0.0063
536.1387	-0.0006
536.3348	0.0024
536.5308	-0.0076
536.7269	-0.0047
536.9229	0.002
537.1189	0.0008
537.3148	0.0041
537.5108	-0.0032
537.7068	0.0126
537.9027	-0.0132
538.0986	0.0089
538.2945	-0.0087
538.4904	-0.0046
538.6863	0.003
538.8821	0.0083
539.078	0.0069
539.2738	0.0035
539.4696	-0.0043
539.6654	0.0001
539.8611	-0.0036
540.0569	0.0003
540.2526	0.0099
540.4484	-0.0019
540.6441	-0.0007
540.8398	0.0105
541.0355	-0.0058
541.2311	-0.0051
541.4268	0.004
541.6224	0.0054
541.818	-0.0012
542.0136	0.0004
542.2092	0.0027
542.4048	-0.0005
542.6003	-0.0039
542.7959	0.0095
542.9914	-0.0017
543.1869	0.0032
543.3824	-0.0021
543.5779	0.0056
543.7734	0.0139
543.9688	0.0045
544.1642	-0.0049
544.3596	0.0113
544.555	-0.0009
544.7504	0.0081
544.9458	0.0118
545.1411	-0.0016
545.3365	-0.0096
545.5318	0.0047
545.7271	0.0018
545.9224	-0.0004
546.1177	0.0067
546.3129	0.0024
546.5081	-0.0065
546.7034	0.0015
546.8986	-0.0016
547.0938	0.0043
547.289	0.0036
547.4841	0.0007
547.6793	-0.0037
547.8744	0.0135
548.0695	-0.0029
548.2646	0.0081
548.4597	-0.0007
548.6548	0.0162
548.8498	0.0029
549.0448	-0.0058
549.2399	0.0103
549.4349	-0.0012
549.6298	0.0012
549.8248	-0.004
550.0198	0.0039
550.2147	0.0081
550.4096	0.0034
550.6045	0.0027
550.7994	-0.0036
550.9943	0.0111
551.1892	-0.0194
551.384	0.004
551.5788	-0.0003
551.7737	0.0029
551.9685	0.0026
552.1632	-0.0004
552.358	0.0027
552.5528	-0.0036
552.7475	0.0078
552.9422	0.0112
553.1369	0.0032
553.3316	0.003
553.5263	0.002
553.7209	-0.0017
553.9156	0.0024
554.1102	0.0049
554.3048	0.0002
554.4994	-0.0018
554.694	-0.0001
554.8885	0.0053
555.0831	0.0076
555.2776	0.0071
555.4721	0.0047
555.6666	0.004
555.8611	0.0091
556.0555	0.002
556.25	0.006
556.4444	-0.0054
556.6388	-0.0008
556.8332	-0.0008
557.0276	-0.0003
557.222	-0.0034
557.4163	0.0001
557.6107	0.004
557.805	0.0014
557.9993	0.0066
558.1936	-0.0108
558.3879	-0.0021
558.5821	-0.0039
558.7764	-0.0079
558.9706	-0.0059
559.1648	0.0144
559.359	-0.0095
559.5532	-0.0022
559.7473	-0.0005
559.9415	0.0044
560.1356	0.0075
560.3297	0.0042
560.5238	0.0072
560.7179	-0.0009
560.9119	-0.0014
561.106	-0.0097
561.3	0.0053
561.494	0.0042
561.688	0.0017
561.882	0.0032
562.076	0.0054
562.2699	0.0096
562.4639	0.0122
562.6578	0.0092
562.8517	0.0067
563.0456	0.0108
563.2395	0.0129
563.4333	0.0129
563.6272	-0.0005
563.821	0.0032
564.0148	-0.0003
564.2086	0.0042
564.4024	0.0063
564.5961	0.0084
564.7899	0.0102
564.9836	-0.0036
565.1773	0.0005
565.371	0.0072
565.5647	0.002
565.7584	0.0117
565.952	-0.0041
566.1456	-0.0076
566.3393	0.0063
566.5329	0.0066
566.7264	0.0033
566.92	0.0007
567.1136	-0.0055
567.3071	-0.0059
567.5006	-0.0007
567.6941	0.0018
567.8876	0.006
568.0811	0.0238
568.2745	0.0011
568.468	0.0055
568.6614	0.0096
568.8548	0.0063
569.0482	0.0096
569.2416	0.0087
569.4349	0.0042
569.6283	0.0003
569.8216	0.0067
570.0149	0.0028
570.2082	0.0081
570.4015	0.0041
570.5947	0.0007
570.788	0.0046
570.9812	0.0048
571.1744	0.0072
571.3676	0.0044
571.5608	0.0003
571.754	0.0093
571.9471	0.0063
572.1402	0.0077
572.3333	0.0044
572.5264	0.0003
572.7195	0.0049
572.9126	0.0038
573.1057	0.0048
573.2987	0.007
573.4917	0.0032
573.6847	0.0077
573.8777	0.0047
574.0707	0.0061
574.2636	0.0064
574.4566	0.0035
574.6495	0.0059
574.8424	0.012
575.0353	0.0082
575.2281	0.0059
575.421	0.0065
575.6138	-0.0015
575.8067	0.0021
575.9995	0.0059
576.1923	0.0035
576.385	0.0048
576.5778	0.0089
576.7706	0.0025
576.9633	0.0055
577.156	-0.0029
577.3487	0.0033
577.5414	0.0002
577.734	0.0029
577.9267	0.004
578.1193	0.0084
578.3119	0.0003
578.5045	0.0023
578.6971	-0.0008
578.8897	0.0028
579.0822	0.0056
579.2747	0.0051
579.4673	0.0081
579.6598	0.0048
579.8522	0.005
580.0447	0.0069
580.2372	0.0071
580.4296	0.0111
580.622	0.0026
580.8144	0.0068
581.0068	0.006
581.1992	0.0069
581.3915	0.0001
581.5839	0.0044
581.7762	0.0032
581.9685	0.005
582.1608	0.0051
582.353	0.0044
582.5453	0.0066
582.7375	0.0048
582.9298	0.004
583.122	0.0018
583.3142	0.0071
583.5063	0.0025
583.6985	0.0003
583.8906	0.0024
584.0827	0.0064
584.2749	0.0009
584.4669	-0.0007
584.659	0.0062
584.8511	0.008
585.0431	0.0061
585.2352	0.0062
585.4272	0.0056
585.6192	0.0043
585.8111	-0.0008
586.0031	0.0025
586.195	0.0032
586.387	0.0003
586.5789	0.0035
586.7708	0.0082
586.9627	0.0065
587.1545	0.0038
587.3464	0.0076
587.5382	0.0061
587.73	0.0071
587.9218	0.0044
588.1136	-0.0015
588.3053	0.0014
588.4971	0.0044
588.6888	0.0025
588.8805	0.0027
589.0722	0.01
589.2639	0.0032
589.4556	0.0076
589.6472	0.0068
589.8389	0.0043
590.0305	0.0019
590.2221	0.0036
590.4137	0.0016
590.6052	0.0011
590.7968	0.0014
590.9883	0.0032
591.1798	0.0063
591.3713	0.0031
591.5628	0.0073
591.7543	0.0086
591.9458	0.0001
592.1372	0.0045
592.3286	0.0018
592.52	0.0045
592.7114	0.0044
592.9028	0.005
593.0941	0.0009
593.2855	0.0056
593.4768	0.0071
593.6681	0.0097
593.8594	0.0067
594.0506	0.0026
594.2419	0.0079
594.4331	0.0063
594.6244	0.0012
594.8156	0.0007
595.0067	0.0009
595.1979	0.005
595.3891	0.0061
595.5802	0.0117
595.7713	0.0089
595.9624	0.0105
596.1535	0.0067
596.3446	0.0021
596.5357	0.0046
596.7267	0.0025
596.9177	0.0074
597.1087	0.0071
597.2997	0.0043
597.4907	0.0046
597.6817	0.0017
597.8726	0.0102
598.0635	-0.0017
598.2544	0.007
598.4453	0.005
598.6362	0.0025
598.827	0.0014
599.0179	0.0061
599.2087	0.008
599.3995	0.0082
599.5903	0.007
599.7811	0.0117
599.9718	0.0047
600.1626	0.0028
600.3533	0.0029
600.544	0.0049
600.7347	0.0073
600.9254	0.0104
601.116	0.0062
601.3067	-0.0004
601.4973	0.0058
601.6879	0.0104
601.8785	0.0086
602.0691	-0.0001
602.2596	0.0021
602.4502	0.0059
602.6407	0.0052
602.8312	0.0083
603.0217	0.0026
603.2122	0.001
603.4027	0.0034
603.5931	0.0062
603.7835	0.0095
603.9739	0.0015
604.1643	0.007
604.3547	0.0028
604.5451	0.0073
604.7354	0.0004
604.9257	-0.0004
605.116	-0.0025
605.3063	0.0031
605.4966	0.0018
605.6869	0.0087
605.8771	0.0086
606.0673	0.0048
606.2575	0.0065
606.4477	0.0125
606.6379	0.0011
606.8281	0.0029
607.0182	0.0028
607.2083	0.0043
607.3985	0.0057
607.5885	0.0013
607.7786	0.0042
607.9687	0.0066
608.1587	0.0072
608.3488	-0.0003
608.5388	-0.003
608.7288	-0.0035
608.9187	0.0076
609.1087	0.0013
609.2986	0.0062
609.4886	0.0048
609.6785	0.0017
609.8684	0.0002
610.0582	0.0003
610.2481	-0.0025
610.4379	0.0017
610.6278	0.0024
610.8176	0.0092
611.0074	0.0065
611.1971	0.0102
611.3869	0.0073
611.5766	-0.0032
611.7664	0.0046
611.9561	0.0123
612.1458	0.0131
612.3354	0.0038
612.5251	0.0029
612.7147	0.0092
612.9044	0.0008
613.094	0.0034
613.2836	0.0011
613.4731	-0.0002
613.6627	0.0093
613.8522	0.0045
614.0417	0.0057
614.2313	0.0047
614.4207	0.0059
614.6102	0.0068
614.7997	0.0103
614.9891	0.0035
615.1785	-0.002
615.3679	0.0019
615.5573	0.0004
615.7467	0.0019
615.9361	0.0063
616.1254	0.0089
616.3147	0.0073
616.504	0.007
616.6933	-0.0003
616.8826	0.0058
617.0718	0.001
617.2611	0.0031
617.4503	0.0045
617.6395	-0.0018
617.8287	0.0002
618.0179	0.0045
618.207	0.0048
618.3961	0.0031
618.5853	0.0115
618.7744	0.0085
618.9634	0.0144
619.1525	0.001
619.3416	0.0008
619.5306	0.0054
619.7196	0.0142
619.9086	-0.0012
620.0976	0.0004
620.2866	0.008
620.4755	-0.0005
620.6645	0.0182
620.8534	0.0027
621.0423	-0.0033
621.2312	0.0055
621.42	-0.0032
621.6089	0.0063
621.7977	0.0121
621.9865	0.0054
622.1753	0.0098
622.3641	-0.0001
622.5529	0.0015
622.7416	-0.004
622.9303	0.0034
623.1191	0.0084
623.3078	0.0136
623.4964	0.0051
623.6851	0.0112
623.8737	0.0095
624.0624	-0.0101
624.251	0.003
624.4396	0.0005
624.6282	0.0076
624.8167	0.0069
625.0053	0.0096
625.1938	-0.0063
625.3823	0.0068
625.5708	-0.0022
625.7593	-0.0057
625.9477	0.0076
626.1362	-0.0087
626.3246	0.0045
626.513	0.0109
626.7014	0.0107
626.8898	0.0172
627.0781	0.0084
627.2665	0.0041
627.4548	-0.0038
627.6431	0.0074
627.8314	0.0131
628.0197	0.0013
628.2079	0.0019
628.3962	0.0081
628.5844	0.0093
628.7726	0.0138
628.9608	0.0034
629.1489	0.0089
629.3371	-0.0024
629.5252	0.0081
629.7134	-0.0015
629.9015	0.0023
630.0895	-0.0147
630.2776	0.0057
630.4657	0.02
630.6537	0.0037
630.8417	-0.011
631.0297	0.0015
631.2177	-0.0002
631.4057	0.0086
631.5936	-0.0058
631.7815	0.0046
631.9695	0.0367
632.1574	0.0266
632.3452	0.0064
632.5331	0.0074
632.7209	0.0094
632.9088	0.0057
633.0966	0.0343
633.2844	0.0139
633.4722	0.0148
633.6599	0.0194
633.8477	0.0195
634.0354	0.0154
634.2231	0.0022
634.4108	0.0012
634.5985	0.0132
634.7861	-0.0079
634.9738	0.001
635.1614	0.0031
635.349	0.0012
635.5366	0.002
635.7242	0.0071
635.9117	0.0067
636.0993	0.0222
636.2868	0.0058
636.4743	0.0229
636.6618	-0.0134
636.8492	0.0088
637.0367	0.0107
637.2241	0.0031
637.4115	0.0286
637.5989	0.0059
637.7863	0.0188
637.9737	0.0052
638.161	0.0012
638.3484	0.0048
638.5357	0.0034
638.723	0.021
638.9103	-0.0069
639.0975	0.0041
639.2848	0.0111
639.472	0.0086
639.6592	-0.006
639.8464	-0.0044
640.0336	0.0041
640.2208	0.0011
640.4079	-0.0057
640.595	-0.0078
640.7821	0.0142
640.9692	-0.0103
641.1563	0.0118
641.3434	0.008
641.5304	0.0301
641.7174	0.0258
641.9044	0.0078
642.0914	0.02
642.2784	0.0064
642.4653	-0.0008
642.6523	0.0008
642.8392	-0.0086
643.0261	0.0169
643.213	0.0129
643.3999	0.0085
643.5867	0.0157
643.7735	-0.0034
643.9604	0.0056
644.1472	0.0008
644.3339	0.0175
644.5207	-0.013
644.7075	0.0052
644.8942	-0.0038
645.0809	-0.0201
645.2676	-0.0102
645.4543	-0.0027
645.6409	0.0186
645.8276	-0.0008
646.0142	-0.003
646.2008	-0.0034
646.3874	-0.0105
646.574	-0.0027
646.7605	0.0254
646.9471	-0.0083
647.1336	-0.011
647.3201	0.0019
647.5066	-0.0071
647.6931	-0.0011
647.8795	0.0048
648.0659	0.0139
648.2524	0.0099
648.4388	0.0008
648.6252	0.0185
648.8115	0.0026
648.9979	0.0162
649.1842	0.0039
649.3705	0.0152
649.5568	-0.0173
649.7431	-0.0188
649.9294	-0.0026
650.1156	-0.0196
650.3018	0.0122
650.488	0.0194
650.6742	0.0164
650.8604	-0.0055
651.0466	0.0034
651.2327	0.0032
651.4188	0.0067
651.6049	0.004
651.791	-0.0114
651.9771	-0.0001
652.1632	0.0067
652.3492	0.0011
652.5352	0.0133
652.7212	0.0096
652.9072	-0.0095
653.0932	-0.004
653.2791	0.0131
653.465	0.0101
653.651	0.0198
653.8369	0.0087
654.0227	-0.0028
654.2086	0.0199
654.3944	0.0158
654.5803	0.004
654.7661	0.0032
654.9519	0.0018
655.1377	0.0001
655.3234	0.0001
655.5092	0.0001
655.6949	0.0001
655.8806	0.0001
656.0663	0.0001
656.2519	0.0001
656.4376	0.0001
656.6232	0.0001
656.8088	0.0001
656.9945	0.0001
657.18	0.0001
657.3656	0.0001
657.5511	0.0001
657.7367	0.0001
657.9222	0.0001
658.1077	0.0001
658.2932	0.0001
658.4786	0.0001
658.6641	0.0001
658.8495	0.0001
659.0349	0.0001
659.2203	0.0001
659.4057	0.0001
659.591	0.1534
659.7764	0.0361
659.9617	0.0038
660.147	-0.0001
660.3323	0.0114
660.5176	-0.0066
660.7028	-0.0021
660.888	0.0131
661.0733	0.0193
661.2585	-0.0025
661.4436	0.0088
661.6288	-0.0001
661.8139	-0.0043
661.9991	-0.0267
662.1842	-0.009
662.3693	-0.0033
662.5544	0.0096
662.7394	0.0062
662.9245	0.006
663.1095	-0.014
663.2945	0.0131
663.4795	-0.0074
663.6644	0.0034
663.8494	-0.0001
664.0343	0.0166
664.2193	-0.0084
664.4042	0.0028
664.589	0.0108
664.7739	-0.0143
664.9587	-0.0091
665.1436	-0.0109
665.3284	-0.0078
665.5132	-0.0168
665.698	0.014
665.8827	0.0232
666.0675	-0.0098
666.2522	0.0074
666.4369	0.0032
666.6216	-0.0055
666.8063	-0.0068
666.9909	-0.0084
667.1756	-0.0102
667.3602	0.0159
667.5448	0.0094
667.7294	0.0158
667.9139	0.0154
668.0985	-0.0031
668.283	0.005
668.4675	0.0082
668.652	0.0083
668.8365	-0.0148
669.0209	0.0163
669.2054	-0.0142
669.3898	0.014
669.5742	0.0293
669.7586	0.0195
669.943	0.0282
670.1273	0.0037
670.3117	0.0253
670.496	0.0213
670.6803	-0.0103
670.8646	-0.0083
671.0488	0.0196
671.2331	0.0036
671.4173	0.0164
671.6015	0.0013
671.7857	0.0066
671.9699	0.0196
672.1541	-0.0075
672.3382	0.0063
672.5223	-0.0003
672.7064	0.0046
672.8905	-0.0001
673.0746	0.0073
673.2587	0.0053
673.4427	-0.0109
673.6267	0.0163
673.8107	0.0212
673.9947	0.0246
674.1787	0.0066
674.3626	0.0129
674.5465	0.0028
674.7304	0.0081
674.9143	-0.0068
675.0982	0.0055
675.2821	0.023
675.4659	-0.0032
675.6497	-0.0091
675.8335	-0.0034
676.0173	0.0245
676.2011	0.0188
676.3849	0.0213
676.5686	0.0222
676.7523	-0.0057
676.936	0.0041
677.1197	-0.0034
677.3034	0.0486
677.487	0.011
677.6706	0.0087
677.8542	0.0146
678.0378	0.0121
678.2214	-0.0074
678.405	-0.0028
678.5885	0.0119
678.772	0.0102
678.9555	0.0024
679.139	-0.0064
679.3225	0.0047
679.5059	0.0169
679.6894	0.0082
679.8728	0.0202
680.0562	0.0029
680.2395	0.0087
680.4229	0.0057
680.6062	-0.0054
680.7896	0.0046
680.9729	0.0207
681.1562	-0.0081
681.3394	0.0024
681.5227	0.0039
681.7059	0.0163
681.8891	-0.0054
682.0723	0.0223
682.2555	0.0096
682.4387	0.011
682.6218	0.0063
682.805	0.0124
682.9881	0.0157
683.1712	0.0306
683.3542	0.0183
683.5373	-0.009
683.7203	0.0125
683.9034	-0.0067
684.0864	0.0076
684.2694	0.0132
684.4523	0.0111
684.6353	0.0147
684.8182	0.0135
685.0011	0.0057
685.184	0.012
685.3669	0.018
685.5498	-0.0161
685.7326	-0.0217
685.9154	-0.0085
686.0982	0.0188
686.281	0.0012
686.4638	0.005
686.6465	0.0024
686.8293	0.0062
687.012	0.0052
687.1947	0.0097
687.3774	0.0141
687.56	-0.0161
687.7427	0.0165
687.9253	-0.0178
688.1079	-0.0013
688.2905	0.006
688.4731	0.0313
688.6556	0.0073
688.8382	-0.0262
689.0207	0.0114
689.2032	0.025
689.3857	0.0144
689.5681	-0.0034
689.7506	0.0305
689.933	-0.0035
690.1154	0.0143
690.2978	0.0061
690.4802	0.0083
690.6626	0.007
690.8449	0.0209
691.0272	-0.0091
691.2095	0.0017
691.3918	0.0063
691.5741	0.0065
691.7563	0.0162
691.9386	0.0238
692.1208	0.0021
692.303	0.0101
692.4852	0.011
692.6673	0.0056
692.8495	-0.0059
693.0316	0.0182
693.2137	0.0237
693.3958	0.0004
693.5778	0.0055
693.7599	-0.0147
693.9419	-0.0005
694.1239	0.0082
694.3059	0.0387
694.4879	-0.0001
694.6699	0.0088
694.8518	0.0102
695.0337	0.0305
695.2157	0.0444
695.3975	-0.0093
695.5794	-0.0035
695.7613	-0.0001
695.9431	0.0007
696.1249	0.0474
696.3067	-0.0011
696.4885	0.0086
696.6703	0.0237
696.852	-0.0012
697.0337	0.0042
697.2154	0.0088
697.3971	-0.0027
697.5788	0.0229
697.7605	-0.0124
697.9421	0.0101
698.1237	0.0319
698.3053	0.0055
698.4869	0.0066
698.6685	-0.0046
698.85	0.0285
699.0315	-0.0004
699.213	0.0409
699.3945	-0.0018
699.576	0.0137
699.7575	0.0414
699.9389	-0.0195
700.1203	0.0091
700.3017	0.0102
700.4831	0.0171
700.6645	0.0322
700.8458	-0.008
701.0271	0.0283
701.2084	0.0142
701.3897	0.0276
701.571	0.001
701.7523	0.0114
701.9335	0.0077
702.1147	0.0194
702.2959	-0.0016
702.4771	0.0231
702.6583	-0.0001
702.8394	-0.0215
703.0205	0.0264
703.2016	0.0068
703.3827	-0.0074
703.5638	0.0033
703.7449	0.0041
703.9259	-0.0094
704.1069	-0.0298
704.2879	0.0074
704.4689	0.0025
704.6499	0.0128
704.8308	-0.0165
705.0117	0.0044
705.1927	0.0174
705.3735	-0.003
705.5544	0.0272
705.7353	-0.0031
705.9161	-0.0195
706.0969	0.004
706.2777	0.0283
706.4585	0.0079
706.6393	0.0036
706.82	0.0156
707.0007	-0.0053
707.1815	-0.0089
707.3621	0.0292
707.5428	0.0144
707.7235	0.0039
707.9041	0.0143
708.0847	0.0115
708.2653	0.0153
708.4459	0.02
708.6265	-0.0064
708.807	0.0244
708.9875	-0.0127
709.168	-0.0116
709.3485	0.0369
709.529	-0.0036
709.7095	-0.0189
709.8899	-0.0024
710.0703	0.0244
710.2507	-0.009
710.4311	-0.0313
710.6115	0.041
710.7918	0.0228
710.9721	0.0108
711.1524	-0.006
711.3327	0.0151
711.513	0.0083
711.6932	-0.0006
711.8735	0.0545
712.0537	-0.0181
712.2339	0.0072
712.4141	0.0155
712.5942	-0.0155
712.7744	0.0233
712.9545	0.0086
713.1346	0.0448
713.3147	0.0151
713.4947	-0.0037
713.6748	0.0076
713.8548	0.0286
714.0348	0.0115
714.2148	0.0196
714.3948	0.0054
714.5748	0.0099
714.7547	0.0117
714.9346	0.016
715.1145	0.0056
715.2944	-0.0104
715.4743	0.0304
715.6541	0.0055
715.834	0.0244
716.0138	0.0104
716.1936	-0.0091
716.3733	0.0089
716.5531	0.0074
716.7328	0.013
716.9126	0.0453
717.0923	-0.0071
717.2719	0.0348
717.4516	0.0152
717.6312	-0.0206
717.8109	0.0348
717.9905	0.0119
718.1701	0.0225
718.3496	-0.0017
718.5292	0.0156
718.7087	0.0066
718.8882	0.0394
719.0677	0.0129
719.2472	0.0134
719.4267	0.001
719.6061	-0.0095
719.7856	0.0238
719.965	0.0322
720.1443	-0.0032
720.3237	-0.0005
720.5031	0.0194
720.6824	0.0177
720.8617	0.0021
721.041	0.0102
721.2203	0.0003
721.3995	0.0006
721.5788	0.003
721.758	0.0007
721.9372	0.0239
722.1164	-0.0074
722.2956	0.0159
722.4747	0.0292
722.6538	-0.0191
722.8329	0.0422
723.012	-0.0119
723.1911	0.0071
723.3702	0.0067
723.5492	0.0029
723.7282	0.0112
723.9072	0.0293
724.0862	0.0052
724.2652	0.005
724.4441	0.0106
724.623	0.012
724.8019	0.0045
724.9808	0.0127
725.1597	0.0148
725.3385	0.0101
725.5174	0.007
725.6962	-0.0025
725.875	0.0019
726.0538	0.037
726.2325	0.0147
726.4112	-0.0057
726.59	0.012
726.7687	-0.0163
726.9474	0.0244
727.126	0.0268
727.3047	0.0003
727.4833	-0.0013
727.6619	-0.0076
727.8405	0.0124
728.0191	0.0229
728.1976	0.0172
728.3762	0.0097
728.5547	-0.0095
728.7332	0.0072
728.9116	0.0057
729.0901	-0.0042
729.2686	0.0015
729.447	0.0247
729.6254	-0.0007
729.8038	0.0133
729.9821	-0.0131
730.1605	0.0279
730.3388	-0.0003
730.5171	0.0237
730.6954	-0.0199
730.8737	-0.002
731.0519	0.0086
731.2302	0.0048
731.4084	-0.0045
731.5866	0.0011
731.7648	0.0032
731.9429	0.0134
732.1211	-0.0149
732.2992	-0.001
732.4773	0.003
732.6554	-0.0026
732.8335	0.0215
733.0115	0.0376
733.1896	-0.0106
733.3676	0.0282
733.5456	-0.0008
733.7235	-0.0012
733.9015	0.0008
734.0794	0.0048
734.2574	-0.0298
734.4353	0.0095
734.6131	-0.0059
734.791	0.0013
734.9689	-0.0108
735.1467	-0.0026
735.3245	0.0058
735.5023	-0.0012
735.68	-0.0082
735.8578	0.0086
736.0355	0.0126
736.2132	0.0074
736.3909	-0.0014
736.5686	-0.0071
736.7463	-0.007
736.9239	0.0145
737.1015	0.0189
737.2791	0.0021
737.4567	0.028
737.6343	0.001
737.8118	0.0182
737.9894	0.0105
738.1669	0.0127
738.3444	0.0174
738.5218	-0.0041
738.6993	0.0098
738.8767	0.0034
739.0541	0.008
739.2315	-0.0144
739.4089	0.0181
739.5863	0.0177
739.7636	-0.007
739.9409	-0.0134
740.1182	0.003
740.2955	0.0161
740.4728	0.0198
740.65	0.0117
740.8272	0.0288
741.0044	-0.0142
741.1816	0.0233
741.3588	-0.0066
741.5359	-0.0091
741.7131	0.0319
741.8902	0.0125
742.0673	-0.0111
742.2444	0.0287
742.4214	0.0098
742.5985	-0.01
742.7755	-0.0154
742.9525	-0.0388
743.1295	-0.0077
743.3064	0.0197
743.4834	0.0073
743.6603	0.0273
743.8372	0.0003
744.0141	0.0131
744.191	-0.0062
744.3678	-0.0098
744.5446	0.0085
744.7215	0.0301
744.8982	0.0138
745.075	0.062
745.2518	0.0085
745.4285	0.0089
745.6052	-0.0118
745.7819	0.0228
745.9586	0.015
746.1353	0.0055
746.3119	-0.0011
746.4885	0.0184
746.6651	0.0099
746.8417	-0.0001
747.0183	0.0253
747.1948	0.0184
747.3714	0.0156
747.5479	0.0237
747.7244	-0.0163
747.9008	0.0077
748.0773	0.0432
748.2537	0.0195
748.4301	0.0279
748.6065	-0.0006
748.7829	-0.0117
748.9593	0.013
749.1356	-0.0005
749.3119	0.0278
749.4882	0.0194
749.6645	-0.0093
749.8408	0.0214
750.017	0.0234
750.1933	-0.0225
750.3695	0.0185
750.5457	-0.0134
750.7218	0.005
750.898	-0.0211
751.0741	-0.0086
751.2502	-0.0083
751.4263	0.0104
751.6024	0.0134
751.7784	0.0066
751.9545	-0.0023
752.1305	-0.0039
752.3065	0.0125
752.4825	0.0027
752.6584	0.0081
752.8344	0.0058
753.0103	-0.0136
753.1862	0.0176
753.3621	-0.003
753.5379	-0.0041
753.7138	0.0168
753.8896	0.0252
754.0654	0.0166
754.2412	0.0027
754.417	0.0173
754.5927	0.0102
754.7685	0.0321
754.9442	0.0291
755.1199	0.015
755.2956	0.0062
755.4712	-0.0025
755.6469	0.0223
755.8225	0.0213
755.9981	0.0255
756.1736	0.0136
756.3492	-0.0085
756.5248	0.0234
756.7003	-0.0031
756.8758	-0.0003
757.0513	-0.0049
757.2267	0.0099
757.4022	-0.0056
757.5776	0.0007
757.753	0.0203
757.9284	0.0016
758.1038	0.0048
758.2791	0.0024
758.4545	-0.0129
758.6298	0.0096
758.8051	0.0044
758.9803	0.0196
759.1556	0.008
759.3308	0.0002
759.506	0.0064
759.6812	-0.0043
759.8564	0.0069
760.0316	0.0143
760.2067	0.0108
760.3819	0.0015
760.557	-0.0028
760.732	0.0058
760.9071	0.0188
761.0821	-0.0319
761.2572	0.0171
761.4322	0.0174
761.6072	-0.02
761.7821	-0.0425
761.9571	0.0133
762.132	0.0138
762.3069	0.0293
762.4818	0.0229
762.6567	0.0084
762.8316	0.0367
763.0064	0.0228
763.1812	0.0123
763.356	-0.0112
763.5308	0.0161
763.7055	-0.0032
763.8803	-0.0057
764.055	0.0066
764.2297	0.0106
764.4044	0.008
764.579	0.0111
764.7537	0.0072
764.9283	0.0066
765.1029	0.0099
765.2775	0.0059
765.4521	0.0104
765.6266	0.0062
765.8011	0.014
765.9756	0.0079
766.1501	0.014
766.3246	0.025
766.4991	-0.0175
766.6735	0.028
766.8479	-0.0117
767.0223	0.0245
767.1967	0.0136
767.371	0.005
767.5454	0.0069
767.7197	0.0091
767.894	-0.0013
768.0683	0.0194
768.2425	0.0178
768.4168	0.012
768.591	-0.0057
768.7652	-0.0024
768.9394	-0.0336
769.1135	-0.0087
769.2877	0.0003
769.4618	0.0211
769.6359	-0.0035
769.81	0.0128
769.984	0.0171
770.1581	0.0055
770.3321	0.0315
770.5061	-0.0159
770.6801	0.0169
770.8541	0.0221
771.028	0.0441
771.202	0.0418
771.3759	-0.0172
771.5498	0.0239
771.7236	0.0139
771.8975	0.0439
772.0713	0.0195
772.2451	0.0023
772.4189	0.0443
772.5927	-0.0032
772.7665	0.0135
772.9402	0.0427
773.1139	-0.0305
773.2876	0.0031
773.4613	0.0171
773.635	0.0371
773.8086	0.0614
773.9822	0.0678
774.1558	0.0103
774.3294	-0.007
774.503	0.0174
774.6765	0.0486
774.8501	0.0046
775.0236	0.0519
775.1971	-0.0167
775.3705	0.0156
775.544	0.0083
775.7174	0.0638
775.8908	0.0103
776.0642	0.0374
776.2376	0.021
776.4109	0.019
776.5843	0.014
776.7576	0.0214
776.9309	0.0335
777.1041	-0.0385
777.2774	0.0047
777.4506	-0.0028
777.6238	0.005
777.797	0.0465
777.9702	0.0104
778.1434	0.0399
778.3165	-0.0242
778.4896	-0.0372
778.6627	0.0422
778.8358	0.0242
779.0089	-0.0213
779.1819	0.0047
779.3549	-0.0042
779.5279	-0.0174
779.7009	0.0382
779.8739	0.0717
780.0468	0.0026
780.2197	0.0216
780.3926	-0.0093
780.5655	0.0021
780.7384	0.0024
780.9112	0.0234
781.0841	0.033
781.2569	0.0126
781.4297	-0.033
781.6024	0.0474
781.7752	0.0176
781.9479	0.0167
782.1206	-0.0152
782.2933	0.0195
782.466	0.0222
782.6386	-0.0197
782.8113	0.0056
782.9839	0.0022
783.1565	0.0282
783.329	-0.0166
783.5016	0.025
783.6741	0.0022
783.8466	0.0395
784.0191	-0.003
784.1916	0.0249
784.3641	-0.0399
784.5365	0.024
784.7089	-0.0316
784.8813	0.098
785.0537	0.0302
785.2261	-0.0002
785.3984	0.0224
785.5707	0.011
785.743	0.0586
785.9153	-0.0288
786.0876	-0.0085
786.2598	-0.0214
786.432	-0.0091
786.6042	0.062
786.7764	-0.042
786.9486	-0.0023
787.1207	0.0501
787.2928	0.0455
787.4649	0.0183
787.637	-0.0084
787.8091	0.0111
787.9811	0.0618
788.1532	0.0264
788.3252	0.0206
788.4972	-0.0013
788.6691	0.0123
788.8411	-0.0156
789.013	0.0183
789.1849	-0.0176
789.3568	-0.0142
789.5287	0.0264
789.7005	0.0054
789.8723	-0.0328
790.0442	-0.0273
790.2159	0.0407
790.3877	0.0096
790.5595	0.0342
790.7312	0.0108
790.9029	-0.0054
791.0746	0.0325
791.2463	-0.0328
791.4179	-0.0056
791.5896	-0.0023
791.7612	0.0493
791.9328	-0.0163
792.1044	-0.016
792.2759	-0.0439
792.4474	0.021
792.619	-0.0278
792.7905	0.0266
792.9619	0.0666
793.1334	0.0703
793.3048	0.0843
793.4762	0.0212
793.6476	-0.0452
793.819	-0.0439
793.9904	0.0034
794.1617	0.0156
794.333	0.0501
794.5043	0.0338
794.6756	-0.0036
794.8469	-0.0063
795.0181	-0.004
795.1893	-0.0064
795.3605	0.0249
795.5317	0.0159
795.7029	-0.0279
795.874	-0.0132
796.0452	0.0423
796.2163	0.0896
796.3873	0.1528
796.5584	0.0881
796.7294	0.0303
796.9005	0.0409
797.0715	-0.0052
797.2425	0.0363
797.4134	0.0571
797.5844	0.0535
797.7553	-0.0238
797.9262	0.0562
798.0971	0.068
798.2679	0.0362
798.4388	0.0797
798.6096	0.0365
798.7804	0.0008
798.9512	0.0211
799.122	0.0152
799.2927	0.0388
799.4635	-0.0374
799.6342	-0.0414
799.8049	0.0438
799.9755	-0.0273
800.1462	0.038
800.3168	0.0211
800.4874	-0.1049
800.658	-0.0387
800.8286	0.0332
800.9991	0.0618
801.1696	-0.0217
801.3402	0.083
801.5106	-0.0408
801.6811	0.0157
801.8516	0.1245
802.022	0.0265
802.1924	0.025
802.3628	0.0557
802.5332	-0.028
802.7035	0.1004
802.8739	0.0486
803.0442	-0.0207
803.2145	0.1063
803.3847	0.0282
803.555	0.079
803.7252	0.012
803.8954	-0.0054
804.0656	0.018
804.2358	0.0142
804.4059	0.0434
804.5761	0.0327
804.7462	0.0243
804.9163	0.0337
805.0864	-0.0126
805.2564	0.0287
805.4264	-0.0038
805.5965	0.0533
805.7665	0.0793
805.9364	-0.0202
806.1064	0.053
806.2763	0.0894
806.4462	0.0293
806.6161	0.0277
806.786	-0.0339
806.9559	0.0165
807.1257	0.0204
807.2955	0.0239
807.4653	0.0382
807.6351	0.0208
807.8048	0.0023
807.9746	0.0651
808.1443	0.0634
808.314	0.0945
808.4837	0.02
808.6533	0.0319
808.8229	0.0524
808.9926	-0.0018
809.1622	0.0151
809.3317	0.0011
809.5013	0.0476
809.6708	0.0181
809.8403	0.0244
810.0098	0.0602
810.1793	-0.0049
810.3488	-0.0195
810.5182	0.0207
810.6876	0.0314
810.857	-0.1246
811.0264	-0.0993
811.1958	0.1218
811.3651	0.0733
811.5344	0.0536
811.7037	0.0182
811.873	0.078
812.0422	0.1231
812.2115	0.0356
812.3807	-0.1096
812.5499	-0.0086
812.7191	-0.1386
812.8882	0.0928
813.0574	0.0232
813.2265	0.1241
813.3956	0.0715
813.5646	-0.0313
813.7337	-0.0164
813.9027	-0.0491
814.0718	0.1129
814.2407	-0.0021
814.4097	-0.0059
814.5787	0.1047
814.7476	0.0636
814.9165	0.0407
815.0854	-0.0298
815.2543	-0.0257
815.4232	0.0417
815.592	0.1335
815.7608	0.0321
815.9296	-0.02
816.0984	0.143
816.2671	-0.1319
816.4359	0.1142
816.6046	0.0752
816.7733	-0.0764
816.942	0.0295
817.1106	0.0501
817.2793	-0.0962
817.4479	0.0016
817.6165	0.0926
817.785	-0.0075
817.9536	-0.0834
818.1221	0.0014
818.2906	-0.0456
818.4591	0.0714
818.6276	0.0401
818.7961	-0.0575
818.9645	0.0769
819.1329	0.1963
819.3013	0.0388
819.4697	-0.1117
819.638	0.0408
819.8064	0.0294
819.9747	0.0621
820.143	-0.0499
820.3113	0.0451
820.4795	0.0762
820.6477	0.1174
820.816	-0.0097
820.9842	0.0857
821.1523	-0.0447
821.3205	0.0373
821.4886	-0.0323
821.6567	-0.0695
821.8248	0.0938
821.9929	-0.1407
822.1609	-0.0011
822.329	0.1172
822.497	0.1538
822.665	0.0686
822.833	0.014
823.0009	-0.0981
823.1688	-0.075
823.3367	-0.0955
823.5046	0.0729
823.6725	-0.0356
823.8404	0.3244
824.0082	-0.0116
824.176	0.1527
824.3438	0.0709
824.5116	-0.0717
824.6793	0.0927
824.847	-0.127
825.0147	0.044
825.1824	-0.0613
825.3501	0.0136
825.5177	-0.0473
825.6854	0.0348
825.853	0.0389
826.0206	-0.0048
826.1881	0.0288
826.3557	-0.0219
826.5232	0.1199
826.6907	0.1051
826.8582	0.0116
827.0257	0.1316
827.1931	0.2534
827.3605	0.0143
827.528	-0.1306
827.6953	-0.0759
827.8627	-0.0126
828.03	-0.0058
828.1974	-0.0886
828.3647	0.1196
828.532	0.0287
828.6992	0.0405
828.8665	-0.2355
829.0337	0.0995
829.2009	-0.1788
829.3681	0.1401
829.5352	-0.0192
829.7024	0.1354
829.8695	-0.034
830.0366	0.1651
830.2037	0.2175
830.3707	0.2508
830.5378	-0.0487
830.7048	-0.0699
830.8718	0.5414
831.0388	0.1719
831.2057	-0
831.3727	0.0575
831.5396	0.0662
831.7065	-0.0703
831.8734	0.3523
832.0402	0.2557
832.2071	0.2239
832.3739	-0.0576
832.5407	-1.6128
832.7075	-0.3413
832.8742	-0.0332
833.041	0.3355
833.2077	0.2048
833.3744	-0.0134
833.541	-0.0496
833.7077	0.0437
833.8743	0.2165
834.0409	-0.0045
834.2075	0.1818
834.3741	-0.2594
834.5407	0.1494
834.7072	0.0868
834.8737	0.1806
835.0402	0.7615
835.2067	0.2156
835.3731	-0.0476
835.5395	0.0751
835.706	0.0281
835.8723	0.0222
836.0387	0.2637
836.2051	0.186
836.3714	0.2022
836.5377	0.2611
836.704	0.6202
836.8703	-0.2605
837.0365	-0.7725
837.2027	0.3235
837.3689	0.0816
837.5351	0.4
837.7013	0.0169
837.8674	-0.4027
838.0335	0.025
838.1997	-0.2238
838.3657	-0
838.5318	1.1376
838.6978	0.4474
838.8639	-0
839.0299	0.2132
839.1958	0.0955
839.3618	0.4368
839.5277	-0.1079
839.6937	0.0288
839.8596	-0.3869
840.0254	-0.1321
840.1913	0.3145
840.3571	-0.076
840.523	-0
840.6888	0.064
840.8545	-0.0098
841.0203	0.1198
841.186	-0.0642
841.3517	0.0671
841.5174	0.0197
841.6831	0.1614
841.8488	-0.2061
842.0144	0.1188
842.18	0.3877
842.3456	-0
842.5112	-0
842.6767	-0.0095
842.8422	0.5282
843.0077	-0.0595
843.1732	-0.2295
843.3387	0.5628
843.5042	0.1142
843.6696	-0.1663
843.835	-0.0513
844.0004	-0.1105
844.1657	-0.6403
844.3311	-0.4968
844.4964	-0
844.6617	0.4546
844.827	1.0477
844.9923	-0.043
845.1575	-0.4203
845.3227	0.3378
845.4879	0.1138
845.6531	-0.1073
845.8183	0.6013
845.9834	1.296
846.1485	0.3791
846.3136	-0.1725
846.4787	-0
846.6438	0.9201
846.8088	-0
846.9738	-0
847.1388	0.9799
847.3038	0.4293
847.4687	0.2873
847.6337	-0.5307
847.7986	-0
847.9635	-0.0721
848.1284	0.7931
848.2932	0.1896
848.458	-0
848.6228	0.4871
848.7876	-0
848.9524	-0.1438
849.1172	-1.6128
849.2819	-0
849.4466	0.2324
849.6113	1.4465
849.7759	-0.162
849.9406	-0.1382
850.1052	-0
850.2698	-0
850.4344	-0
850.599	-0.0678
850.7635	0.0614
850.928	0.5107
851.0925	0.1652
851.257	-0.2646
851.4215	-0
851.5859	-0.0092
851.7503	-0.4739
851.9147	-0
852.0791	0.2581
852.2434	0.5701
852.4078	0.1058
852.5721	0.0061
852.7364	-0.1286
852.9007	-0.2073
853.0649	-0
853.2291	0.6719
853.3934	-0
853.5575	-0.3166
853.7217	0.8934
853.8859	-0.2037
854.05	1.2829
854.2141	-0
854.3782	-0.0221
854.5423	-0.5804
854.7063	-0.0715
854.8703	-0.0173
855.0343	-0.0113
855.1983	-0.0315
855.3623	0.4593
855.5262	-0
855.6901	0.2995
855.854	0.2242
856.0179	-0.2662
856.1818	-0
856.3456	0.1741
856.5094	-0
856.6732	-0.0148
856.837	-0.8411
857.0008	-0
857.1645	0.1182
857.3282	-0.4788
857.4919	0.3149
857.6556	-0
857.8192	-0.1261
857.9828	-0.2054
858.1465	0.0803
858.31	0.0309
858.4736	-0.415
858.6372	0.3189
858.8007	-0.1135
858.9642	0.1156
859.1277	0.3624
859.2911	-0.5701
859.4546	-1.1644
859.618	0.225
859.7814	-0.0358
859.9448	-0
860.1081	-0
860.2715	-0
860.4348	0.0221
860.5981	1.003
860.7614	1.1016
860.9246	-0.0963
861.0879	0.6362
861.2511	-0
861.4143	-0
861.5774	-0.2618
861.7406	0.223
861.9037	-0.1165
862.0668	-0
862.2299	0.9912
862.393	0.7263
862.556	-0
862.7191	-0.1066
862.8821	0.2206
863.0451	0.1963
863.208	-0
863.371	-0.1044
863.5339	0.2684
863.6968	0.7685
863.8597	-0
864.0225	-0.0273
864.1854	-0.0397
864.3482	-0
864.511	1.2924
864.6737	-0.5452
864.8365	0.467
864.9992	-0
865.1619	0.5997
865.3246	-1.4249
865.4873	0.1078
865.65	-0
865.8126	-0
865.9752	-0.2713
866.1378	0.1656
866.3004	0.1356
866.4629	-1.9816
866.6254	-0
866.7879	-0.3191
866.9504	0.1101
867.1129	-0
867.2753	-0.0036
867.4377	0.9912
867.6001	-0.0785
867.7625	0.1216
867.9249	-0
868.0872	-0.1865
868.2495	-0
868.4118	0.0556
868.5741	-0.6565
868.7363	-0
868.8986	-0.6778
869.0608	-0.0135
869.223	0.0569
869.3851	-0
869.5473	-0.128
869.7094	0.827
869.8715	-0.8059
870.0336	-0.0719
870.1957	-0
870.3577	-0
870.5197	-0.0562
870.6817	-0.3552
870.8437	-0
871.0057	-0
871.1676	0.1555
871.3295	-0
871.4914	-0.8692
871.6533	-0.0211
871.8151	0.6841
871.977	-0.0357
872.1388	0.452
872.3006	-0
872.4623	-0.6116
872.6241	-0
872.7858	-0.0575
872.9475	-0
873.1092	0.5078
873.2709	1.3024
873.4325	-2.0661
873.5941	-0
873.7557	0.5208
873.9173	-0
874.0789	0.2374
874.2404	-0.2354
874.4019	0.0814
874.5634	-0
874.7249	-0
874.8863	0.3907
875.0478	0.1722
875.2092	0.5831
875.3706	0.0029
875.5319	0.3466
875.6933	-0
875.8546	-0
876.0159	0.2223
876.1772	-0.0566
876.3385	-0
876.4997	-0.031
876.6609	-0.1448
876.8221	-0
876.9833	-0.3404
877.1445	0.1929
877.3056	-0.9843
877.4667	-0
877.6278	-0
877.7889	0.5374
877.9499	-0
878.111	-0.2326
878.272	-0
878.433	-0.1033
878.5939	-0
878.7549	-0.2255
878.9158	-0
879.0767	-0.2112
879.2376	-0
879.3984	0.2504
879.5593	0.1742
879.7201	-1.9323
879.8809	0.2695
880.0417	0.0072
880.2024	0.4756
880.3632	-0
880.5239	-0
880.6846	-0.0627
880.8452	0.0456
881.0059	-0.7897
881.1665	-0.2599
881.3271	0.1709
881.4877	-0.0444
881.6483	-0
881.8088	-0
881.9693	-1.2972
882.1298	-1.2972
882.2903	-1.2972
