Data from D4ACN5uM440nmA_Absorbance_13-50-24-562.txt Node
Date: Fri Feb 21 13:50:24 GMT 2025
User: LASERRRRR
Spectrometer: FLMT03099
Trigger mode: 0
Integration Time (sec): 1.500000E-2
Scans to average: 1
Electric dark correction enabled: true
Nonlinearity correction enabled: false
Boxcar width: 0
XAxis mode: Wavelengths
Number of Pixels in Spectrum: 3648
>>>>>Begin Spectral Data<<<<<
179.3399	-0.5788
179.5586	-0.5788
179.7771	-0.5788
179.9957	-0.1352
180.2143	-1.2231
180.4329	-0
180.6514	-0
180.8699	0.185
181.0885	-0
181.307	0.1575
181.5255	0.5067
181.744	-0
181.9625	-0
182.181	-0
182.3994	-0.4632
182.6179	0.3455
182.8363	0.8948
183.0547	-0.1203
183.2732	-0.0346
183.4916	0.0429
183.71	0.2247
183.9284	-0.0165
184.1467	0.0048
184.3651	0.151
184.5835	0.1783
184.8018	0.1147
185.0201	0.153
185.2385	0.0981
185.4568	0.1098
185.6751	0.1366
185.8934	0.2255
186.1117	-0.1417
186.3299	0.0602
186.5482	0.2607
186.7664	0.0872
186.9847	0.028
187.2029	0.1675
187.4211	0.1151
187.6393	0.3814
187.8575	0.269
188.0757	0.4367
188.2939	0.0936
188.512	0.1908
188.7302	0.1591
188.9483	0.2248
189.1665	0.4752
189.3846	0.1602
189.6027	0.2273
189.8208	0.1276
190.0389	0.1623
190.257	-0.0284
190.475	0.1132
190.6931	0.028
190.9111	0.2317
191.1292	0.1076
191.3472	0.0467
191.5652	0.0883
191.7832	0.1973
192.0012	0.108
192.2192	0.205
192.4371	0.0074
192.6551	0.0693
192.873	0.1655
193.091	0.0536
193.3089	0.1752
193.5268	0.3398
193.7447	0.2951
193.9626	0.1954
194.1805	0.2399
194.3984	0.2902
194.6162	0.2987
194.8341	0.3625
195.0519	0.1955
195.2697	0.3477
195.4875	0.3387
195.7054	0.3664
195.9231	0.2374
196.1409	0.3303
196.3587	0.2747
196.5765	0.3068
196.7942	0.2313
197.012	0.3467
197.2297	0.3831
197.4474	0.3624
197.6651	0.3531
197.8828	0.3158
198.1005	0.3964
198.3182	0.3774
198.5358	0.339
198.7535	0.3795
198.9711	0.384
199.1888	0.3466
199.4064	0.4264
199.624	0.3706
199.8416	0.3906
200.0592	0.407
200.2767	0.4277
200.4943	0.4111
200.7119	0.3824
200.9294	0.3637
201.1469	0.4251
201.3645	0.4214
201.582	0.3866
201.7995	0.4198
202.017	0.4099
202.2344	0.4014
202.4519	0.4009
202.6694	0.4168
202.8868	0.3716
203.1042	0.4067
203.3217	0.4156
203.5391	0.3846
203.7565	0.3791
203.9739	0.3693
204.1913	0.344
204.4086	0.378
204.626	0.3216
204.8433	0.3379
205.0607	0.3613
205.278	0.3204
205.4953	0.3356
205.7126	0.3434
205.9299	0.3405
206.1472	0.3253
206.3644	0.3478
206.5817	0.3325
206.7989	0.3318
207.0162	0.3222
207.2334	0.351
207.4506	0.2934
207.6678	0.3032
207.885	0.3063
208.1022	0.2977
208.3194	0.2714
208.5365	0.2936
208.7537	0.2797
208.9708	0.3051
209.1879	0.2808
209.405	0.2698
209.6222	0.2555
209.8392	0.2924
210.0563	0.2804
210.2734	0.2814
210.4905	0.2781
210.7075	0.2647
210.9245	0.2595
211.1416	0.2686
211.3586	0.2652
211.5756	0.2516
211.7926	0.2805
212.0096	0.2736
212.2265	0.262
212.4435	0.2614
212.6604	0.2495
212.8774	0.2628
213.0943	0.2706
213.3112	0.2465
213.5281	0.2531
213.745	0.2456
213.9619	0.2487
214.1788	0.2442
214.3956	0.2505
214.6125	0.253
214.8293	0.2687
215.0461	0.2465
215.2629	0.2673
215.4798	0.2262
215.6965	0.2254
215.9133	0.2338
216.1301	0.2325
216.3469	0.2589
216.5636	0.2396
216.7803	0.255
216.9971	0.2517
217.2138	0.2386
217.4305	0.2548
217.6472	0.2435
217.8639	0.2626
218.0805	0.2561
218.2972	0.2587
218.5138	0.263
218.7305	0.2445
218.9471	0.2477
219.1637	0.2674
219.3803	0.2545
219.5969	0.2485
219.8135	0.2679
220.0301	0.2575
220.2466	0.2551
220.4632	0.2578
220.6797	0.249
220.8962	0.251
221.1127	0.2788
221.3292	0.2596
221.5457	0.2765
221.7622	0.2789
221.9787	0.2832
222.1951	0.2689
222.4116	0.2805
222.628	0.2929
222.8444	0.2804
223.0608	0.2926
223.2772	0.2898
223.4936	0.2956
223.71	0.2876
223.9264	0.2839
224.1427	0.2753
224.3591	0.2833
224.5754	0.2993
224.7917	0.302
225.008	0.2945
225.2243	0.3061
225.4406	0.2924
225.6569	0.3103
225.8732	0.3178
226.0894	0.3036
226.3057	0.3022
226.5219	0.3172
226.7381	0.3237
226.9543	0.3052
227.1705	0.3124
227.3867	0.3061
227.6029	0.3326
227.8191	0.3314
228.0352	0.3526
228.2513	0.3466
228.4675	0.3458
228.6836	0.3525
228.8997	0.3469
229.1158	0.3521
229.3319	0.3632
229.548	0.3556
229.764	0.362
229.9801	0.3731
230.1961	0.3777
230.4121	0.3639
230.6282	0.3738
230.8442	0.3924
231.0602	0.3795
231.2761	0.3835
231.4921	0.3847
231.7081	0.3917
231.924	0.3973
232.14	0.4013
232.3559	0.4091
232.5718	0.4095
232.7877	0.4107
233.0036	0.4072
233.2195	0.4118
233.4353	0.4065
233.6512	0.4154
233.867	0.4262
234.0829	0.4121
234.2987	0.4299
234.5145	0.4311
234.7303	0.4384
234.9461	0.4464
235.1619	0.433
235.3776	0.43
235.5934	0.43
235.8091	0.4517
236.0249	0.4489
236.2406	0.447
236.4563	0.4522
236.672	0.4355
236.8877	0.4406
237.1034	0.4504
237.319	0.4478
237.5347	0.4492
237.7503	0.451
237.966	0.456
238.1816	0.4516
238.3972	0.4466
238.6128	0.4662
238.8284	0.4564
239.0439	0.4657
239.2595	0.4564
239.475	0.4611
239.6906	0.4522
239.9061	0.4652
240.1216	0.4675
240.3371	0.4617
240.5526	0.4505
240.7681	0.4644
240.9836	0.453
241.199	0.4543
241.4145	0.4468
241.6299	0.4526
241.8453	0.4388
242.0607	0.4242
242.2761	0.4286
242.4915	0.4246
242.7069	0.4107
242.9223	0.4201
243.1376	0.4039
243.353	0.406
243.5683	0.3978
243.7836	0.3836
243.9989	0.3735
244.2142	0.3699
244.4295	0.3683
244.6448	0.3562
244.86	0.3484
245.0753	0.3361
245.2905	0.3379
245.5057	0.331
245.721	0.3272
245.9362	0.3259
246.1514	0.3097
246.3665	0.3095
246.5817	0.2982
246.7969	0.2936
247.012	0.2948
247.2271	0.2856
247.4423	0.278
247.6574	0.2855
247.8725	0.2718
248.0876	0.2677
248.3026	0.2648
248.5177	0.2495
248.7328	0.2516
248.9478	0.2517
249.1628	0.2497
249.3779	0.2422
249.5929	0.2366
249.8079	0.2321
250.0228	0.2257
250.2378	0.2217
250.4528	0.2194
250.6677	0.2208
250.8827	0.2184
251.0976	0.2164
251.3125	0.2185
251.5274	0.2029
251.7423	0.2082
251.9572	0.2081
252.172	0.2072
252.3869	0.2053
252.6017	0.1979
252.8166	0.2028
253.0314	0.1958
253.2462	0.202
253.461	0.1953
253.6758	0.1883
253.8906	0.1981
254.1053	0.1971
254.3201	0.1866
254.5348	0.1813
254.7496	0.1893
254.9643	0.1928
255.179	0.1843
255.3937	0.184
255.6083	0.1905
255.823	0.1862
256.0377	0.1821
256.2523	0.1873
256.467	0.1837
256.6816	0.1829
256.8962	0.1816
257.1108	0.1824
257.3254	0.1783
257.54	0.1769
257.7545	0.1788
257.9691	0.1816
258.1836	0.1757
258.3981	0.1738
258.6127	0.1753
258.8272	0.1814
259.0417	0.172
259.2561	0.182
259.4706	0.1701
259.6851	0.1714
259.8995	0.1719
260.114	0.1784
260.3284	0.1697
260.5428	0.1728
260.7572	0.1761
260.9716	0.1833
261.186	0.1735
261.4003	0.1771
261.6147	0.175
261.829	0.175
262.0433	0.1779
262.2577	0.1764
262.472	0.1783
262.6863	0.181
262.9005	0.1718
263.1148	0.1764
263.3291	0.1716
263.5433	0.1808
263.7576	0.1736
263.9718	0.1779
264.186	0.1778
264.4002	0.1796
264.6144	0.1867
264.8286	0.1772
265.0427	0.1814
265.2569	0.1727
265.471	0.1747
265.6851	0.1776
265.8993	0.1777
266.1134	0.176
266.3275	0.1747
266.5415	0.1801
266.7556	0.1824
266.9697	0.1788
267.1837	0.1765
267.3978	0.1788
267.6118	0.1781
267.8258	0.1781
268.0398	0.179
268.2538	0.1813
268.4677	0.1721
268.6817	0.1774
268.8957	0.1673
269.1096	0.1652
269.3235	0.1716
269.5374	0.1792
269.7514	0.1707
269.9652	0.1767
270.1791	0.1676
270.393	0.1658
270.6068	0.1742
270.8207	0.1708
271.0345	0.1663
271.2483	0.1611
271.4622	0.1665
271.676	0.1702
271.8897	0.1665
272.1035	0.1719
272.3173	0.1705
272.531	0.1626
272.7448	0.1618
272.9585	0.1621
273.1722	0.16
273.3859	0.1682
273.5996	0.1705
273.8133	0.1683
274.0269	0.1587
274.2406	0.167
274.4542	0.1687
274.6679	0.1697
274.8815	0.1711
275.0951	0.1789
275.3087	0.1676
275.5223	0.17
275.7358	0.171
275.9494	0.1713
276.1629	0.1697
276.3765	0.172
276.59	0.1682
276.8035	0.167
277.017	0.1748
277.2305	0.1704
277.444	0.1737
277.6574	0.1714
277.8709	0.1716
278.0843	0.1783
278.2978	0.176
278.5112	0.1697
278.7246	0.1752
278.938	0.1715
279.1513	0.176
279.3647	0.1768
279.5781	0.1668
279.7914	0.165
280.0047	0.1757
280.2181	0.1718
280.4314	0.1775
280.6447	0.1793
280.8579	0.1726
281.0712	0.175
281.2845	0.177
281.4977	0.1753
281.711	0.1759
281.9242	0.1736
282.1374	0.1816
282.3506	0.1759
282.5638	0.1784
282.7769	0.1768
282.9901	0.1775
283.2033	0.1761
283.4164	0.1782
283.6295	0.1791
283.8426	0.1758
284.0557	0.1858
284.2688	0.1772
284.4819	0.1806
284.695	0.1835
284.908	0.181
285.1211	0.1805
285.3341	0.1779
285.5471	0.1835
285.7601	0.1847
285.9731	0.1882
286.1861	0.1819
286.3991	0.1869
286.612	0.1883
286.825	0.1851
287.0379	0.1856
287.2508	0.1901
287.4637	0.1912
287.6766	0.1875
287.8895	0.1887
288.1024	0.1873
288.3152	0.1966
288.5281	0.1863
288.7409	0.1947
288.9538	0.1906
289.1666	0.1893
289.3794	0.1885
289.5922	0.1883
289.8049	0.1887
290.0177	0.1941
290.2304	0.1889
290.4432	0.1954
290.6559	0.1892
290.8686	0.1931
291.0813	0.1937
291.294	0.1921
291.5067	0.1911
291.7194	0.1972
291.932	0.1935
292.1447	0.2011
292.3573	0.191
292.5699	0.1945
292.7825	0.1936
292.9951	0.1913
293.2077	0.1925
293.4203	0.1969
293.6328	0.1899
293.8454	0.1943
294.0579	0.1931
294.2704	0.2005
294.4829	0.1918
294.6954	0.1973
294.9079	0.1944
295.1204	0.191
295.3328	0.1959
295.5453	0.1953
295.7577	0.1966
295.9701	0.1976
296.1825	0.1966
296.3949	0.196
296.6073	0.1927
296.8197	0.192
297.0321	0.1914
297.2444	0.1962
297.4567	0.1969
297.6691	0.1942
297.8814	0.1989
298.0937	0.1926
298.306	0.19
298.5182	0.1977
298.7305	0.1982
298.9428	0.1964
299.155	0.1899
299.3672	0.1908
299.5794	0.19
299.7916	0.1949
300.0038	0.1993
300.216	0.193
300.4282	0.1939
300.6403	0.1987
300.8525	0.1934
301.0646	0.196
301.2767	0.1923
301.4888	0.1926
301.7009	0.1972
301.913	0.195
302.125	0.1921
302.3371	0.1967
302.5491	0.2005
302.7612	0.1994
302.9732	0.1925
303.1852	0.1951
303.3972	0.1914
303.6092	0.1999
303.8211	0.1917
304.0331	0.1903
304.245	0.191
304.457	0.1878
304.6689	0.193
304.8808	0.1829
305.0927	0.1897
305.3046	0.1856
305.5164	0.1881
305.7283	0.1827
305.9401	0.1791
306.152	0.1807
306.3638	0.1812
306.5756	0.1818
306.7874	0.1753
306.9992	0.1753
307.2109	0.1741
307.4227	0.1724
307.6344	0.1764
307.8462	0.1687
308.0579	0.1736
308.2696	0.1676
308.4813	0.1673
308.693	0.1631
308.9046	0.1622
309.1163	0.1585
309.328	0.157
309.5396	0.1525
309.7512	0.1568
309.9628	0.1562
310.1744	0.1445
310.386	0.1469
310.5976	0.1487
310.8091	0.1502
311.0207	0.1491
311.2322	0.1468
311.4437	0.1394
311.6552	0.1367
311.8667	0.1438
312.0782	0.1384
312.2897	0.1419
312.5012	0.1402
312.7126	0.1354
312.924	0.1334
313.1355	0.1322
313.3469	0.1341
313.5583	0.133
313.7696	0.1305
313.981	0.1367
314.1924	0.129
314.4037	0.1298
314.6151	0.1258
314.8264	0.1261
315.0377	0.1292
315.249	0.1352
315.4603	0.1192
315.6716	0.1212
315.8828	0.1243
316.0941	0.1251
316.3053	0.1238
316.5165	0.1246
316.7277	0.1147
316.9389	0.1221
317.1501	0.1238
317.3613	0.125
317.5724	0.1216
317.7836	0.12
317.9947	0.1186
318.2058	0.1207
318.417	0.1181
318.6281	0.1213
318.8391	0.1232
319.0502	0.117
319.2613	0.121
319.4723	0.1203
319.6834	0.1234
319.8944	0.1192
320.1054	0.1219
320.3164	0.1204
320.5274	0.1228
320.7383	0.1219
320.9493	0.1181
321.1602	0.1175
321.3712	0.1117
321.5821	0.1189
321.793	0.1264
322.0039	0.1247
322.2148	0.1208
322.4257	0.1191
322.6365	0.1204
322.8474	0.1239
323.0582	0.1195
323.269	0.124
323.4798	0.1228
323.6906	0.1247
323.9014	0.1198
324.1122	0.1161
324.3229	0.1205
324.5337	0.1231
324.7444	0.1252
324.9551	0.1269
325.1658	0.1196
325.3765	0.1261
325.5872	0.1239
325.7979	0.1195
326.0085	0.1238
326.2192	0.1203
326.4298	0.1313
326.6404	0.1217
326.851	0.117
327.0616	0.1244
327.2722	0.1295
327.4828	0.1247
327.6933	0.1299
327.9039	0.1248
328.1144	0.1294
328.3249	0.1275
328.5354	0.1265
328.7459	0.1286
328.9564	0.1303
329.1669	0.132
329.3773	0.1277
329.5878	0.1277
329.7982	0.1276
330.0086	0.1271
330.219	0.1256
330.4294	0.1312
330.6398	0.1285
330.8502	0.1321
331.0605	0.1224
331.2708	0.124
331.4812	0.1352
331.6915	0.141
331.9018	0.1266
332.1121	0.1361
332.3224	0.1281
332.5326	0.1242
332.7429	0.1292
332.9531	0.1363
333.1633	0.129
333.3735	0.1308
333.5837	0.1335
333.7939	0.137
334.0041	0.1368
334.2143	0.1271
334.4244	0.1411
334.6346	0.1338
334.8447	0.135
335.0548	0.1348
335.2649	0.1376
335.475	0.1325
335.685	0.1348
335.8951	0.1324
336.1051	0.1343
336.3152	0.1358
336.5252	0.1391
336.7352	0.1355
336.9452	0.1386
337.1552	0.1338
337.3652	0.1294
337.5751	0.1378
337.7851	0.1397
337.995	0.1343
338.2049	0.1344
338.4148	0.1366
338.6247	0.1375
338.8346	0.1357
339.0445	0.141
339.2543	0.1349
339.4642	0.1352
339.674	0.1341
339.8838	0.1332
340.0936	0.1419
340.3034	0.1419
340.5132	0.1345
340.7229	0.1405
340.9327	0.1467
341.1424	0.1377
341.3522	0.1373
341.5619	0.1465
341.7716	0.1414
341.9813	0.1461
342.1909	0.1447
342.4006	0.1526
342.6102	0.1449
342.8199	0.1452
343.0295	0.147
343.2391	0.1411
343.4487	0.1399
343.6583	0.1513
343.8679	0.1481
344.0774	0.146
344.287	0.1526
344.4965	0.1481
344.706	0.1539
344.9155	0.1494
345.125	0.1484
345.3345	0.1593
345.544	0.15
345.7534	0.1581
345.9629	0.1577
346.1723	0.1618
346.3817	0.1535
346.5911	0.1582
346.8005	0.1656
347.0099	0.1548
347.2193	0.1617
347.4286	0.1627
347.638	0.1563
347.8473	0.1659
348.0566	0.1603
348.2659	0.1633
348.4752	0.165
348.6845	0.1644
348.8937	0.1668
349.103	0.1662
349.3122	0.1659
349.5214	0.1706
349.7306	0.1745
349.9398	0.1715
350.149	0.1647
350.3582	0.1711
350.5674	0.1737
350.7765	0.1686
350.9856	0.1646
351.1948	0.1716
351.4039	0.1757
351.613	0.1735
351.822	0.1753
352.0311	0.1749
352.2402	0.1781
352.4492	0.1714
352.6582	0.1768
352.8672	0.176
353.0762	0.1819
353.2852	0.1837
353.4942	0.1784
353.7032	0.1821
353.9121	0.1709
354.1211	0.1789
354.33	0.1827
354.5389	0.1718
354.7478	0.1733
354.9567	0.187
355.1655	0.184
355.3744	0.1751
355.5833	0.1842
355.7921	0.1875
356.0009	0.1892
356.2097	0.1808
356.4185	0.1896
356.6273	0.1824
356.8361	0.1898
357.0448	0.1951
357.2536	0.1883
357.4623	0.1865
357.671	0.1956
357.8797	0.1873
358.0884	0.1913
358.2971	0.1942
358.5057	0.1969
358.7144	0.2018
358.923	0.2003
359.1316	0.2023
359.3402	0.1931
359.5488	0.1898
359.7574	0.2096
359.966	0.1979
360.1746	0.2043
360.3831	0.2102
360.5916	0.2123
360.8002	0.2121
361.0087	0.2087
361.2172	0.2064
361.4256	0.206
361.6341	0.2028
361.8426	0.2104
362.051	0.2139
362.2594	0.2097
362.4678	0.2208
362.6762	0.2119
362.8846	0.2138
363.093	0.2192
363.3014	0.2183
363.5097	0.2261
363.718	0.2246
363.9264	0.2238
364.1347	0.2236
364.343	0.2292
364.5513	0.2271
364.7595	0.2354
364.9678	0.2243
365.176	0.2312
365.3842	0.2318
365.5925	0.2313
365.8007	0.2404
366.0089	0.2433
366.217	0.2406
366.4252	0.2334
366.6333	0.2415
366.8415	0.2387
367.0496	0.2314
367.2577	0.2358
367.4658	0.2357
367.6739	0.2354
367.882	0.2498
368.09	0.2377
368.2981	0.2537
368.5061	0.2451
368.7141	0.2462
368.9221	0.2563
369.1301	0.2464
369.3381	0.2513
369.5461	0.246
369.754	0.2483
369.962	0.2464
370.1699	0.2583
370.3778	0.2581
370.5857	0.2545
370.7936	0.2586
371.0015	0.2652
371.2093	0.2575
371.4172	0.2533
371.625	0.2535
371.8328	0.253
372.0406	0.2654
372.2484	0.266
372.4562	0.2662
372.664	0.2646
372.8717	0.2671
373.0795	0.2649
373.2872	0.2749
373.4949	0.2686
373.7026	0.2631
373.9103	0.2564
374.118	0.2702
374.3256	0.277
374.5333	0.2701
374.7409	0.2769
374.9485	0.2767
375.1561	0.2714
375.3637	0.2776
375.5713	0.2834
375.7789	0.2795
375.9864	0.273
376.194	0.2836
376.4015	0.2819
376.609	0.2815
376.8165	0.2805
377.024	0.2758
377.2315	0.2851
377.4389	0.2828
377.6464	0.2872
377.8538	0.2862
378.0612	0.2912
378.2686	0.2886
378.476	0.2917
378.6834	0.2864
378.8908	0.3016
379.0981	0.2881
379.3055	0.2951
379.5128	0.2878
379.7201	0.2985
379.9274	0.2878
380.1347	0.3006
380.342	0.3051
380.5492	0.2919
380.7565	0.2909
380.9637	0.2914
381.1709	0.301
381.3781	0.3074
381.5853	0.2984
381.7925	0.2979
381.9997	0.3105
382.2068	0.3063
382.4139	0.3019
382.6211	0.3056
382.8282	0.3049
383.0353	0.3087
383.2424	0.2956
383.4494	0.3051
383.6565	0.3094
383.8635	0.3045
384.0706	0.3069
384.2776	0.3058
384.4846	0.3121
384.6916	0.3082
384.8986	0.3062
385.1055	0.3162
385.3125	0.3151
385.5194	0.319
385.7263	0.2996
385.9333	0.3176
386.1402	0.316
386.347	0.3054
386.5539	0.3167
386.7608	0.3144
386.9676	0.3118
387.1744	0.3129
387.3813	0.3165
387.5881	0.3021
387.7948	0.3214
388.0016	0.3201
388.2084	0.3132
388.4151	0.3121
388.6219	0.3031
388.8286	0.3079
389.0353	0.3087
389.242	0.3114
389.4487	0.302
389.6553	0.3006
389.862	0.2989
390.0686	0.3113
390.2753	0.3014
390.4819	0.2993
390.6885	0.2989
390.8951	0.3048
391.1016	0.2985
391.3082	0.3021
391.5147	0.3014
391.7213	0.302
391.9278	0.2911
392.1343	0.2979
392.3408	0.2951
392.5473	0.2949
392.7537	0.285
392.9602	0.2907
393.1666	0.287
393.373	0.2826
393.5794	0.2883
393.7858	0.2892
393.9922	0.283
394.1986	0.2793
394.4049	0.284
394.6113	0.2829
394.8176	0.2757
395.0239	0.283
395.2302	0.2802
395.4365	0.2913
395.6428	0.2789
395.8491	0.2772
396.0553	0.2784
396.2615	0.2703
396.4678	0.2806
396.674	0.2666
396.8802	0.2733
397.0863	0.2739
397.2925	0.2643
397.4987	0.2722
397.7048	0.2753
397.9109	0.2606
398.117	0.2656
398.3231	0.2737
398.5292	0.2653
398.7353	0.2631
398.9413	0.2639
399.1474	0.2661
399.3534	0.2651
399.5594	0.2725
399.7654	0.2566
399.9714	0.2775
400.1774	0.258
400.3833	0.2702
400.5893	0.2661
400.7952	0.2582
401.0011	0.2654
401.207	0.2639
401.4129	0.261
401.6188	0.2595
401.8247	0.2717
402.0305	0.2557
402.2364	0.2612
402.4422	0.2645
402.648	0.2644
402.8538	0.2533
403.0596	0.2611
403.2654	0.2496
403.4711	0.2628
403.6768	0.264
403.8826	0.2569
404.0883	0.2618
404.294	0.2625
404.4997	0.2589
404.7054	0.274
404.911	0.2629
405.1167	0.2665
405.3223	0.255
405.5279	0.2599
405.7335	0.2646
405.9391	0.2537
406.1447	0.2641
406.3502	0.2555
406.5558	0.2584
406.7613	0.2546
406.9668	0.2522
407.1724	0.2637
407.3778	0.2623
407.5833	0.2665
407.7888	0.2674
407.9942	0.2597
408.1997	0.259
408.4051	0.2702
408.6105	0.2636
408.8159	0.2621
409.0213	0.2666
409.2267	0.2637
409.432	0.2519
409.6374	0.2594
409.8427	0.2635
410.048	0.2619
410.2533	0.2659
410.4586	0.247
410.6639	0.2672
410.8691	0.2622
411.0744	0.2675
411.2796	0.2565
411.4848	0.2665
411.69	0.2516
411.8952	0.2513
412.1004	0.2636
412.3056	0.2595
412.5107	0.2638
412.7158	0.2674
412.921	0.2563
413.1261	0.2586
413.3312	0.2641
413.5362	0.2761
413.7413	0.2468
413.9464	0.2549
414.1514	0.2658
414.3564	0.2468
414.5614	0.2456
414.7664	0.2523
414.9714	0.2594
415.1764	0.2575
415.3813	0.2542
415.5863	0.2616
415.7912	0.2586
415.9961	0.2574
416.201	0.2599
416.4059	0.2541
416.6108	0.2488
416.8156	0.2595
417.0205	0.2568
417.2253	0.2455
417.4301	0.2586
417.6349	0.2534
417.8397	0.2638
418.0445	0.2556
418.2492	0.2521
418.454	0.2437
418.6587	0.2521
418.8634	0.2487
419.0681	0.2538
419.2728	0.246
419.4775	0.2562
419.6822	0.2555
419.8868	0.2498
420.0915	0.2513
420.2961	0.2299
420.5007	0.2453
420.7053	0.2456
420.9099	0.2427
421.1144	0.2401
421.319	0.2451
421.5235	0.2389
421.728	0.2461
421.9325	0.2444
422.137	0.2433
422.3415	0.2365
422.546	0.2352
422.7504	0.2405
422.9549	0.2355
423.1593	0.2229
423.3637	0.2306
423.5681	0.2405
423.7725	0.2329
423.9769	0.2423
424.1812	0.2206
424.3856	0.2316
424.5899	0.2263
424.7942	0.2214
424.9985	0.2273
425.2028	0.2303
425.4071	0.2321
425.6113	0.2289
425.8156	0.2269
426.0198	0.2239
426.224	0.2218
426.4282	0.2193
426.6324	0.2197
426.8366	0.2199
427.0407	0.2236
427.2449	0.2124
427.449	0.2062
427.6531	0.2157
427.8572	0.215
428.0613	0.2199
428.2654	0.2116
428.4694	0.2043
428.6735	0.2072
428.8775	0.2038
429.0815	0.2057
429.2855	0.2035
429.4895	0.1992
429.6935	0.197
429.8975	0.1887
430.1014	0.2058
430.3053	0.1983
430.5093	0.1922
430.7132	0.1876
430.9171	0.1853
431.1209	0.1968
431.3248	0.1829
431.5286	0.1867
431.7325	0.1904
431.9363	0.1813
432.1401	0.1741
432.3439	0.1819
432.5477	0.1726
432.7514	0.1767
432.9552	0.176
433.1589	0.1681
433.3627	0.1697
433.5664	0.164
433.7701	0.1694
433.9737	0.1752
434.1774	0.1722
434.3811	0.1492
434.5847	0.1659
434.7883	0.1588
434.9919	0.1579
435.1955	0.1547
435.3991	0.1605
435.6027	0.151
435.8062	0.1612
436.0098	0.1466
436.2133	0.1504
436.4168	0.1457
436.6203	0.1422
436.8238	0.1378
437.0272	0.1456
437.2307	0.1375
437.4341	0.138
437.6375	0.1389
437.841	0.1271
438.0443	0.1338
438.2477	0.1218
438.4511	0.1225
438.6545	0.1263
438.8578	0.1201
439.0611	0.1261
439.2644	0.1312
439.4677	0.1248
439.671	0.1144
439.8743	0.1237
440.0775	0.1075
440.2808	0.1145
440.484	0.1141
440.6872	0.1051
440.8904	0.0951
441.0936	0.1032
441.2967	0.0977
441.4999	0.097
441.703	0.0965
441.9062	0.109
442.1093	0.1056
442.3124	0.099
442.5155	0.0963
442.7185	0.0987
442.9216	0.089
443.1246	0.0875
443.3276	0.0928
443.5307	0.0783
443.7337	0.0885
443.9366	0.0853
444.1396	0.0794
444.3426	0.0807
444.5455	0.0863
444.7484	0.0823
444.9513	0.0719
445.1542	0.0834
445.3571	0.0768
445.56	0.0739
445.7628	0.0751
445.9657	0.0755
446.1685	0.0721
446.3713	0.0817
446.5741	0.0757
446.7769	0.0781
446.9797	0.075
447.1824	0.0693
447.3852	0.0557
447.5879	0.065
447.7906	0.0519
447.9933	0.0573
448.196	0.0611
448.3986	0.0535
448.6013	0.0468
448.8039	0.0632
449.0066	0.0563
449.2092	0.0552
449.4118	0.0508
449.6143	0.0587
449.8169	0.0427
450.0195	0.0494
450.222	0.0571
450.4245	0.048
450.627	0.0485
450.8295	0.0466
451.032	0.0444
451.2345	0.0391
451.4369	0.0468
451.6394	0.0408
451.8418	0.0468
452.0442	0.0449
452.2466	0.036
452.449	0.0453
452.6513	0.0394
452.8537	0.0375
453.056	0.0299
453.2583	0.0295
453.4607	0.0364
453.663	0.0378
453.8652	0.031
454.0675	0.0378
454.2697	0.0334
454.472	0.0321
454.6742	0.0282
454.8764	0.0375
455.0786	0.0354
455.2808	0.0237
455.4829	0.0355
455.6851	0.0292
455.8872	0.0181
456.0893	0.0273
456.2915	0.0249
456.4935	0.0369
456.6956	0.0225
456.8977	0.0243
457.0997	0.0324
457.3018	0.0249
457.5038	0.028
457.7058	0.027
457.9078	0.0289
458.1098	0.0234
458.3117	0.0305
458.5137	0.0123
458.7156	0.0273
458.9175	0.0239
459.1194	0.027
459.3213	0.0198
459.5232	0.0219
459.725	0.0266
459.9269	0.0237
460.1287	0.0113
460.3305	0.0171
460.5323	0.0203
460.7341	0.0195
460.9359	0.0123
461.1376	0.0202
461.3394	0.0148
461.5411	0.0224
461.7428	0.0268
461.9445	0.0235
462.1462	0.0105
462.3479	0.0111
462.5495	0.024
462.7512	0.0247
462.9528	0.0191
463.1544	0.0094
463.356	0.0107
463.5576	0.0227
463.7592	0.0079
463.9607	0.0098
464.1623	0.0161
464.3638	0.007
464.5653	0.0178
464.7668	0.0177
464.9683	0.0153
465.1697	0.0139
465.3712	0.0044
465.5726	0.0082
465.7741	0.0206
465.9755	0.0095
466.1769	0.0086
466.3782	0.0157
466.5796	0.0142
466.7809	0.0162
466.9823	0.0126
467.1836	0.0108
467.3849	0.0064
467.5862	0.0095
467.7875	0.0092
467.9887	0.0095
468.19	0.0025
468.3912	0.0107
468.5924	0.0045
468.7936	0.0099
468.9948	0.0061
469.196	0.0072
469.3972	0.0012
469.5983	0.0135
469.7994	0.017
470.0006	0.0151
470.2017	0.0093
470.4027	0.022
470.6038	0.0128
470.8049	0.0104
471.0059	0.0216
471.2069	0.0103
471.408	0.0197
471.6089	0.0194
471.8099	0.0111
472.0109	0.0101
472.2119	0.0141
472.4128	0.0073
472.6137	0.0132
472.8146	0.0154
473.0155	0.0123
473.2164	0.007
473.4173	-0.0016
473.6181	0.0032
473.819	0.0109
474.0198	0.0045
474.2206	0.0019
474.4214	0.0016
474.6222	-0.0008
474.8229	0.0088
475.0237	0.0131
475.2244	0.0086
475.4251	0.0063
475.6258	-0.0012
475.8265	0.0102
476.0272	0.0002
476.2278	0.0054
476.4285	0.0082
476.6291	-0.0037
476.8297	0.0148
477.0303	0.0051
477.2309	0.015
477.4315	0.0096
477.632	0.006
477.8326	0.0072
478.0331	0.0179
478.2336	0.0072
478.4341	0.003
478.6346	0.0008
478.8351	-0.0017
479.0355	0.011
479.236	0.0033
479.4364	0.0047
479.6368	0.0075
479.8372	0.008
480.0376	0.0055
480.2379	0.0008
480.4383	0.0091
480.6386	-0.0048
480.8389	0.0005
481.0392	0.0055
481.2395	0.0165
481.4398	0.0079
481.6401	0.0099
481.8403	0.0035
482.0405	0.0054
482.2408	0.0098
482.441	0.0087
482.6411	0.0132
482.8413	0.0068
483.0415	0.0115
483.2416	0.0078
483.4417	0.0036
483.6419	-0.0045
483.8419	-0.0001
484.042	0.0014
484.2421	0.006
484.4422	0.0051
484.6422	0.0001
484.8422	0.0104
485.0422	0.0124
485.2422	0.0011
485.4422	0.0041
485.6422	0.0005
485.8421	0.0036
486.042	0.0125
486.242	-0.0013
486.4419	0.0038
486.6417	0.0034
486.8416	0.0033
487.0415	0.0033
487.2413	0.0007
487.4411	0.0071
487.641	0.0019
487.8408	0.0089
488.0405	0.0146
488.2403	0.0023
488.4401	0.005
488.6398	0.0063
488.8395	0.0067
489.0392	0.0113
489.2389	0.0125
489.4386	0.0009
489.6383	0.005
489.8379	0.0063
490.0376	0.0063
490.2372	0.0039
490.4368	0.0015
490.6364	0.0018
490.836	-0.0006
491.0355	-0.0048
491.2351	0.0033
491.4346	0.0076
491.6341	0.0004
491.8336	-0.0024
492.0331	0.005
492.2326	0.0071
492.432	-0.0002
492.6315	0.0104
492.8309	0.0095
493.0303	0.0113
493.2297	0.0074
493.4291	-0.0068
493.6284	0.0064
493.8278	0.0014
494.0271	0.0098
494.2264	-0.0036
494.4257	0.0112
494.625	0.0059
494.8243	-0.0051
495.0236	0.0095
495.2228	0.0093
495.422	0.0061
495.6213	0.0031
495.8205	0.0112
496.0196	0.0104
496.2188	0.0054
496.418	0.0083
496.6171	-0.0005
496.8162	0.0036
497.0153	0.0087
497.2144	0.0035
497.4135	0.0064
497.6126	0.0034
497.8116	-0.0024
498.0107	0.0142
498.2097	0.011
498.4087	0.0052
498.6077	-0.0026
498.8067	0.0073
499.0056	0.0009
499.2046	0.0105
499.4035	-0.0029
499.6024	-0.0027
499.8013	0.0109
500.0002	0.0069
500.199	0.0089
500.3979	0.0034
500.5967	0.0003
500.7956	0.0039
500.9944	0.0049
501.1932	0.0148
501.3919	0.0101
501.5907	0.0063
501.7895	0.0094
501.9882	0.0029
502.1869	0.0066
502.3856	0.0035
502.5843	0.0024
502.783	0.0049
502.9816	0.012
503.1803	0.0005
503.3789	0.0115
503.5775	0.0044
503.7761	0.0049
503.9747	0.0053
504.1732	-0.0003
504.3718	0.012
504.5703	0.0034
504.7689	0.0028
504.9674	0.0058
505.1658	0.0003
505.3643	0.0065
505.5628	0.0113
505.7612	0.0016
505.9597	0.0029
506.1581	0.0092
506.3565	0.0038
506.5549	0.0048
506.7532	-0.0025
506.9516	0.0035
507.1499	0.0053
507.3482	0.007
507.5465	0.0126
507.7448	0.0087
507.9431	0.0073
508.1414	-0.0022
508.3396	0.0061
508.5379	0.0026
508.7361	0.0065
508.9343	0.0021
509.1325	0.0106
509.3306	-0.0017
509.5288	0.005
509.7269	0.0117
509.9251	0.0115
510.1232	0.0064
510.3213	0.0072
510.5193	-0.0001
510.7174	0.0073
510.9154	0.0097
511.1135	0.0013
511.3115	-0.0003
511.5095	0.0139
511.7075	0.0021
511.9055	0.0041
512.1034	0.0053
512.3014	0.0038
512.4993	0.001
512.6972	0.0055
512.8951	0.0036
513.093	0.0016
513.2908	0.0158
513.4887	0.0065
513.6865	0.0001
513.8844	0.0082
514.0822	0.0077
514.2799	-0.0005
514.4777	-0.0015
514.6755	0.0056
514.8732	0.0017
515.0709	0.0065
515.2687	0.005
515.4664	0.0087
515.664	0.0188
515.8617	0.005
516.0594	0.0067
516.257	-0.0035
516.4546	0.0168
516.6522	0.0005
516.8498	0.0025
517.0474	0.0095
517.2449	-0.0003
517.4425	0.009
517.64	0.0032
517.8375	0.0125
518.035	0.0001
518.2325	0.0032
518.43	0.0001
518.6274	0.0025
518.8249	0.0018
519.0223	0.0065
519.2197	0.0032
519.4171	0.0024
519.6145	0.0118
519.8118	0.0009
520.0092	-0.0021
520.2065	0.011
520.4038	0.0058
520.6011	0.013
520.7984	0.007
520.9956	0.0085
521.1929	-0.0024
521.3901	0.0096
521.5874	0.0189
521.7846	0.0046
521.9818	0.0097
522.1789	0.0049
522.3761	0.0124
522.5732	0.0093
522.7704	-0.0014
522.9675	-0.0066
523.1646	0.003
523.3617	0.0213
523.5587	0.0061
523.7558	0.0092
523.9528	0.0098
524.1498	-0.0007
524.3468	0.0104
524.5438	0.0102
524.7408	0.0004
524.9378	0.0168
525.1347	0.0119
525.3316	0.004
525.5285	0.0041
525.7254	0.0117
525.9223	0.0124
526.1192	0.0126
526.316	0.0126
526.5129	0.0119
526.7097	0.0001
526.9065	0.0099
527.1033	0.0121
527.3	-0.0028
527.4968	0.0132
527.6935	0.0031
527.8903	0.003
528.087	-0.0008
528.2837	0.0074
528.4804	0.0039
528.677	0.0062
528.8737	0.0028
529.0703	0.0128
529.2669	0.0069
529.4635	0.0089
529.6601	0.0066
529.8567	-0.0005
530.0532	0.004
530.2498	0.0043
530.4463	0.0029
530.6428	0.0036
530.8393	0.0135
531.0358	0.005
531.2322	-0.0108
531.4287	0.0043
531.6251	-0.0056
531.8215	0.0009
532.0179	0.0052
532.2143	0.0049
532.4107	0.0142
532.607	-0.0066
532.8034	0.0013
532.9997	-0.0014
533.196	-0.0063
533.3923	0.006
533.5886	0.0118
533.7848	0.0096
533.9811	0.0039
534.1773	0.0072
534.3735	0.011
534.5697	-0.005
534.7659	0.0052
534.9621	0.018
535.1582	0.0069
535.3544	0.0094
535.5505	0.0085
535.7466	0.0041
535.9427	0.0026
536.1387	-0.0033
536.3348	0.0069
536.5308	0.0096
536.7269	0.0061
536.9229	0.0114
537.1189	0.0138
537.3148	0.0075
537.5108	-0.006
537.7068	0.0074
537.9027	-0.0047
538.0986	0.0077
538.2945	-0.0016
538.4904	0.0009
538.6863	0.0037
538.8821	0.0106
539.078	0.0094
539.2738	0.0093
539.4696	-0.0003
539.6654	0.0093
539.8611	0.0078
540.0569	-0.0018
540.2526	0.017
540.4484	-0
540.6441	0.0054
540.8398	0.0204
541.0355	0.0006
541.2311	-0.0033
541.4268	0.0191
541.6224	0.0079
541.818	0.0084
542.0136	0.011
542.2092	0.0092
542.4048	0.003
542.6003	-0.0029
542.7959	0.0056
542.9914	0.004
543.1869	0.0118
543.3824	0.0116
543.5779	0.0136
543.7734	0.0191
543.9688	0.0097
544.1642	0.0077
544.3596	0.0094
544.555	-0.0041
544.7504	0.0138
544.9458	-0.0011
545.1411	0.0093
545.3365	0.0044
545.5318	0.0149
545.7271	0.0091
545.9224	0.0084
546.1177	0.0118
546.3129	0.0039
546.5081	0.0083
546.7034	0.0053
546.8986	0.0066
547.0938	0.0094
547.289	0.0066
547.4841	0.0077
547.6793	-0.0035
547.8744	0.0169
548.0695	0.0033
548.2646	0.0005
548.4597	0.0105
548.6548	0.0134
548.8498	0.0069
549.0448	0.0099
549.2399	0.0114
549.4349	0.007
549.6298	0.0108
549.8248	-0.0004
550.0198	0.0049
550.2147	0.0011
550.4096	-0.005
550.6045	-0.0006
550.7994	0.0131
550.9943	0.0042
551.1892	-0.0041
551.384	0.0059
551.5788	0.0044
551.7737	0.0095
551.9685	0.0073
552.1632	0.0003
552.358	0.0071
552.5528	0.0078
552.7475	0.0113
552.9422	0.0121
553.1369	0.0099
553.3316	0.0093
553.5263	0.0148
553.7209	0.0004
553.9156	-0.0034
554.1102	0.0048
554.3048	0.0001
554.4994	0.0043
554.694	0.0121
554.8885	0.0029
555.0831	0.0058
555.2776	0.0001
555.4721	0.0057
555.6666	0.0014
555.8611	0.006
556.0555	0.0083
556.25	0.0084
556.4444	-0
556.6388	0.0063
556.8332	0.011
557.0276	0.0061
557.222	0.0061
557.4163	0.0052
557.6107	-0.0084
557.805	-0.0103
557.9993	0.0053
558.1936	-0.002
558.3879	0.001
558.5821	0.0039
558.7764	0.0011
558.9706	0.0024
559.1648	0.0041
559.359	0.0009
559.5532	-0.0035
559.7473	0.0002
559.9415	0.0067
560.1356	0.0157
560.3297	-0.0013
560.5238	0.0118
560.7179	-0.002
560.9119	0.0044
561.106	0.0001
561.3	0.0083
561.494	-0.01
561.688	0.0058
561.882	0.0032
562.076	0.0061
562.2699	0.0082
562.4639	0.0172
562.6578	0.0138
562.8517	0.0044
563.0456	0.002
563.2395	0.0134
563.4333	0.0063
563.6272	0.003
563.821	0.0028
564.0148	-0.0002
564.2086	-0.0007
564.4024	0.0047
564.5961	0.0031
564.7899	0.0094
564.9836	0.0077
565.1773	0.0057
565.371	0.0029
565.5647	0.0135
565.7584	0.0226
565.952	0.0037
566.1456	0.0095
566.3393	0.0072
566.5329	-0.0001
566.7264	0.0027
566.92	0.0082
567.1136	0.0047
567.3071	-0.0017
567.5006	0.0107
567.6941	0.0103
567.8876	0.0029
568.0811	0.0142
568.2745	0.0034
568.468	-0.0001
568.6614	0.0121
568.8548	0.0022
569.0482	0.0039
569.2416	0.0005
569.4349	0.0002
569.6283	0.0084
569.8216	0.0057
570.0149	0.0031
570.2082	0.0106
570.4015	0.002
570.5947	0.0078
570.788	0.0042
570.9812	-0.0001
571.1744	0.0054
571.3676	0.0052
571.5608	0.0065
571.754	0.0108
571.9471	0.009
572.1402	0.0077
572.3333	0.0035
572.5264	0.0043
572.7195	0.0007
572.9126	0.003
573.1057	0.0049
573.2987	0.002
573.4917	0.0073
573.6847	0.0001
573.8777	0.0078
574.0707	0.0054
574.2636	0.0037
574.4566	0.005
574.6495	0.0033
574.8424	0.007
575.0353	0.0059
575.2281	0.0106
575.421	-0.0011
575.6138	0.0018
575.8067	0.0065
575.9995	0.0047
576.1923	0.009
576.385	0.0027
576.5778	0.0035
576.7706	0.0058
576.9633	0.0061
577.156	0.0006
577.3487	0.0065
577.5414	0.0012
577.734	0.005
577.9267	0.005
578.1193	0.0063
578.3119	0.0038
578.5045	0.0062
578.6971	0.0017
578.8897	0.0019
579.0822	0.0051
579.2747	0.0068
579.4673	0.0081
579.6598	0.0083
579.8522	0.0032
580.0447	0.0072
580.2372	0.0068
580.4296	0.0109
580.622	0.0025
580.8144	0.0055
581.0068	0.0051
581.1992	0.0043
581.3915	-0
581.5839	0.0023
581.7762	0.0052
581.9685	0.0059
582.1608	0.0032
582.353	0.0012
582.5453	0.0062
582.7375	0.0079
582.9298	0.0031
583.122	0.0039
583.3142	0.0091
583.5063	0.0045
583.6985	-0.0014
583.8906	0.0046
584.0827	0.0029
584.2749	0.0048
584.4669	0.0058
584.659	0.0061
584.8511	0.0081
585.0431	0.0091
585.2352	0.0039
585.4272	0.0041
585.6192	0.0052
585.8111	0.0019
586.0031	-0.001
586.195	0.0049
586.387	0.003
586.5789	0.0048
586.7708	0.0084
586.9627	0.0048
587.1545	0.0068
587.3464	0.0074
587.5382	0.0059
587.73	0.0104
587.9218	0.007
588.1136	-0.0019
588.3053	0.0076
588.4971	0.0039
588.6888	0.004
588.8805	0.0015
589.0722	0.0073
589.2639	0.0044
589.4556	0.0054
589.6472	0.009
589.8389	0.0029
590.0305	0.0018
590.2221	0.0066
590.4137	0.0028
590.6052	0.0059
590.7968	0.0072
590.9883	0.0039
591.1798	-0
591.3713	0.0003
591.5628	0.0023
591.7543	0.0056
591.9458	0.0044
592.1372	0.0039
592.3286	0.0036
592.52	0.0061
592.7114	0.0063
592.9028	0.01
593.0941	-0.0015
593.2855	0.0008
593.4768	0.0118
593.6681	0.0098
593.8594	0.0085
594.0506	0
594.2419	0.0091
594.4331	0.0009
594.6244	0.0024
594.8156	0.0045
595.0067	0.0033
595.1979	0.0049
595.3891	0.0076
595.5802	0.0081
595.7713	0.006
595.9624	0.0074
596.1535	0.0027
596.3446	0.0028
596.5357	0.0106
596.7267	0.0059
596.9177	0.0006
597.1087	0.0027
597.2997	0.0055
597.4907	-0.0025
597.6817	0.0054
597.8726	0.0076
598.0635	0.0018
598.2544	0.0089
598.4453	0.0069
598.6362	0.0033
598.827	0.0046
599.0179	0.0058
599.2087	0.0057
599.3995	0.0024
599.5903	0.0105
599.7811	0.0068
599.9718	-0.0001
600.1626	0.0015
600.3533	0.0035
600.544	0.0018
600.7347	0.008
600.9254	0.0097
601.116	0.005
601.3067	0.0009
601.4973	0.0116
601.6879	0.0026
601.8785	0.0076
602.0691	0.0014
602.2596	0.0098
602.4502	0.0054
602.6407	0.0026
602.8312	0.0061
603.0217	0.0028
603.2122	0.0027
603.4027	0.0034
603.5931	0.0067
603.7835	0.0058
603.9739	-0.0008
604.1643	0.0035
604.3547	0.0081
604.5451	0.0078
604.7354	0
604.9257	0.0039
605.116	-0.0002
605.3063	0.0088
605.4966	0.0042
605.6869	0.0101
605.8771	0.0071
606.0673	0.0045
606.2575	0.0018
606.4477	0.0133
606.6379	0.0065
606.8281	-0.0007
607.0182	0.0064
607.2083	0.0047
607.3985	0.0037
607.5885	0.0023
607.7786	0.003
607.9687	0.0108
608.1587	0.0057
608.3488	0.0078
608.5388	-0.0054
608.7288	0.0008
608.9187	-0.0019
609.1087	0.0092
609.2986	0.0052
609.4886	-0.0029
609.6785	0.0018
609.8684	0.0033
610.0582	0.0056
610.2481	0.0031
610.4379	0.0139
610.6278	0.0057
610.8176	0.0149
611.0074	0.0069
611.1971	0.0037
611.3869	0.0035
611.5766	-0.004
611.7664	0.0058
611.9561	0.0055
612.1458	0.0093
612.3354	0.0053
612.5251	0.0053
612.7147	0.011
612.9044	0.0034
613.094	0.003
613.2836	0.001
613.4731	0.0075
613.6627	0.0088
613.8522	0.0058
614.0417	0.009
614.2313	0.0003
614.4207	0.0073
614.6102	0.0103
614.7997	0.0064
614.9891	0.0097
615.1785	-0.0026
615.3679	0.006
615.5573	0.0018
615.7467	-0.0033
615.9361	0.0049
616.1254	0.0129
616.3147	-0.0013
616.504	0.0082
616.6933	0.0044
616.8826	-0.0042
617.0718	0.0098
617.2611	0.0077
617.4503	-0.0004
617.6395	0.014
617.8287	0.0142
618.0179	0.0006
618.207	0.0029
618.3961	-0.0017
618.5853	-0.0006
618.7744	0.005
618.9634	0.0083
619.1525	0.0085
619.3416	0.0049
619.5306	0.0065
619.7196	0.0072
619.9086	-0.0025
620.0976	-0.0081
620.2866	0.0042
620.4755	0.0004
620.6645	0.0101
620.8534	-0.0001
621.0423	0.0004
621.2312	-0.0019
621.42	0.001
621.6089	-0.0016
621.7977	0.0049
621.9865	-0.0015
622.1753	-0.0026
622.3641	-0.0003
622.5529	0.0026
622.7416	0.004
622.9303	0.004
623.1191	-0.0002
623.3078	0.001
623.4964	0.0012
623.6851	0.0086
623.8737	-0.0064
624.0624	-0.0067
624.251	0.0034
624.4396	0.0046
624.6282	0.0146
624.8167	-0.0043
625.0053	0.0119
625.1938	-0.004
625.3823	0.0045
625.5708	0.0049
625.7593	0.0003
625.9477	0.0118
626.1362	0.0037
626.3246	0.0089
626.513	-0.0042
626.7014	0.01
626.8898	0.0162
627.0781	0.0045
627.2665	0.0073
627.4548	-0.0014
627.6431	0.0119
627.8314	0.0209
628.0197	0.0089
628.2079	0.0061
628.3962	0.0075
628.5844	-0.0017
628.7726	0.0003
628.9608	0.0051
629.1489	0.0016
629.3371	0.0003
629.5252	0.0122
629.7134	-0.013
629.9015	0.0121
630.0895	-0.0091
630.2776	0.0054
630.4657	0.0133
630.6537	-0.0022
630.8417	0.0026
631.0297	0.0051
631.2177	0.0077
631.4057	0.0015
631.5936	-0.0104
631.7815	-0.0013
631.9695	0.0183
632.1574	0.0012
632.3452	0.0049
632.5331	0.0003
632.7209	0.0053
632.9088	0.0217
633.0966	0.0204
633.2844	0.0109
633.4722	0.0083
633.6599	0.0244
633.8477	0.0025
634.0354	0.0221
634.2231	-0.0155
634.4108	-0.0021
634.5985	0.0146
634.7861	-0.0111
634.9738	0.0072
635.1614	-0.0067
635.349	-0.007
635.5366	-0.0067
635.7242	0.0056
635.9117	0.0144
636.0993	0.0115
636.2868	-0.0019
636.4743	0.0101
636.6618	-0.0095
636.8492	-0.0018
637.0367	0.0005
637.2241	-0.0006
637.4115	0.0247
637.5989	0.0032
637.7863	0.0064
637.9737	0.0027
638.161	-0.0093
638.3484	-0.009
638.5357	0.0049
638.723	0.0267
638.9103	-0.0165
639.0975	0.0032
639.2848	0.0061
639.472	0.013
639.6592	-0.0063
639.8464	-0.001
640.0336	0.0198
640.2208	0.0055
640.4079	-0.0064
640.595	-0.012
640.7821	0.0218
640.9692	-0.0037
641.1563	-0.001
641.3434	0.0134
641.5304	0.004
641.7174	0.0147
641.9044	0.0026
642.0914	0.0153
642.2784	0.0091
642.4653	0.0039
642.6523	0.0079
642.8392	-0.0038
643.0261	0.0068
643.213	0.0111
643.3999	0.013
643.5867	0.0063
643.7735	0.0026
643.9604	0.0071
644.1472	-0
644.3339	0.0062
644.5207	0.0042
644.7075	0.0108
644.8942	0.0097
645.0809	-0.0128
645.2676	-0.0125
645.4543	0.0117
645.6409	0.0247
645.8276	0.0178
646.0142	0.004
646.2008	-0.0041
646.3874	-0.0036
646.574	0.0101
646.7605	0.0088
646.9471	0.0212
647.1336	-0.0118
647.3201	0.0293
647.5066	0.0093
647.6931	-0.0081
647.8795	-0.0036
648.0659	0.0011
648.2524	0.012
648.4388	-0
648.6252	0.0178
648.8115	0.0038
648.9979	0.0023
649.1842	0.0008
649.3705	0.0035
649.5568	-0.0079
649.7431	-0.0105
649.9294	0.0041
650.1156	-0.0156
650.3018	0.0085
650.488	0.0128
650.6742	0.0169
650.8604	0.0125
651.0466	-0.0097
651.2327	0.0021
651.4188	0.0015
651.6049	0.0138
651.791	0.0057
651.9771	0.0127
652.1632	0.0108
652.3492	-0.0006
652.5352	0.011
652.7212	-0.0026
652.9072	-0.0004
653.0932	0.0232
653.2791	-0.0012
653.465	0.0037
653.651	0.0132
653.8369	0.0066
654.0227	0.0079
654.2086	0.0016
654.3944	0.0106
654.5803	0.0028
654.7661	0.004
654.9519	-0.0012
655.1377	-0
655.3234	-0
655.5092	-0
655.6949	-0
655.8806	-0
656.0663	-0
656.2519	-0
656.4376	-0
656.6232	-0
656.8088	-0
656.9945	-0
657.18	-0
657.3656	-0
657.5511	-0
657.7367	-0
657.9222	-0
658.1077	-0
658.2932	-0
658.4786	-0
658.6641	-0
658.8495	-0
659.0349	-0
659.2203	-0
659.4057	-0
659.591	0.158
659.7764	0.0217
659.9617	-0.0143
660.147	0.0086
660.3323	-0.0024
660.5176	-0.0074
660.7028	-0.0116
660.888	0.0152
661.0733	0.0083
661.2585	-0.0052
661.4436	0.0123
661.6288	0.0158
661.8139	0.005
661.9991	0.0002
662.1842	-0.0014
662.3693	0.0106
662.5544	0.0041
662.7394	0.0173
662.9245	0.0139
663.1095	-0.0213
663.2945	-0
663.4795	-0.0185
663.6644	0.0034
663.8494	-0.0031
664.0343	0.0035
664.2193	-0.0096
664.4042	-0.0082
664.589	0.0104
664.7739	-0.0008
664.9587	-0.0098
665.1436	-0.0116
665.3284	0.0124
665.5132	-0.0269
665.698	0.018
665.8827	0.0082
666.0675	-0.0029
666.2522	0.0087
666.4369	-0.0266
666.6216	0.0218
666.8063	-0.0074
666.9909	0.0006
667.1756	0.0069
667.3602	-0.0258
667.5448	0.0141
667.7294	0.0175
667.9139	-0.0062
668.0985	0.0218
668.283	0.0089
668.4675	0.0251
668.652	-0.0007
668.8365	-0.0208
669.0209	-0.0007
669.2054	-0.0038
669.3898	-0.0001
669.5742	0.0168
669.7586	0.0212
669.943	0.0205
670.1273	-0.001
670.3117	0.0221
670.496	-0.0042
670.6803	-0.0024
670.8646	-0.0288
671.0488	0.0116
671.2331	-0.0108
671.4173	0.0017
671.6015	0.0026
671.7857	0.0112
671.9699	0.0137
672.1541	-0.0038
672.3382	0.0116
672.5223	-0.0057
672.7064	-0.0007
672.8905	-0.002
673.0746	0.0035
673.2587	0.0114
673.4427	-0.0016
673.6267	-0.0086
673.8107	-0.0014
673.9947	0.0271
674.1787	0.0009
674.3626	0.0238
674.5465	0.0086
674.7304	-0.0138
674.9143	0.0166
675.0982	0.0115
675.2821	-0.0046
675.4659	-0.0143
675.6497	0.0121
675.8335	0.0087
676.0173	-0.0139
676.2011	0.0229
676.3849	0.0112
676.5686	0.0202
676.7523	0.0042
676.936	-0.0264
677.1197	-0.0136
677.3034	0.0106
677.487	0.0056
677.6706	0.0044
677.8542	-0.023
678.0378	0.0076
678.2214	-0.0099
678.405	0.002
678.5885	0.017
678.772	-0.0056
678.9555	0.001
679.139	0.0039
679.3225	-0.0032
679.5059	-0.0125
679.6894	-0
679.8728	0.0014
680.0562	0.0084
680.2395	-0.0075
680.4229	0.0055
680.6062	-0.0158
680.7896	-0.0063
680.9729	0.0079
681.1562	0.0048
681.3394	-0.0063
681.5227	0.0225
681.7059	0.011
681.8891	0.0229
682.0723	0.0053
682.2555	-0.0035
682.4387	0.0091
682.6218	0.0157
682.805	0.0089
682.9881	0.0016
683.1712	0.0033
683.3542	0.0262
683.5373	-0.0067
683.7203	-0.004
683.9034	-0.0212
684.0864	0.0027
684.2694	0.014
684.4523	0.0172
684.6353	0.015
684.8182	-0.0107
685.0011	0.0074
685.184	0.0003
685.3669	0.0279
685.5498	-0.0084
685.7326	0.0009
685.9154	-0.0059
686.0982	0.019
686.281	-0.0067
686.4638	0.0097
686.6465	-0.0039
686.8293	-0.005
687.012	0.0123
687.1947	0.0004
687.3774	-0.0005
687.56	-0.0165
687.7427	-0.0117
687.9253	-0.0345
688.1079	0.0053
688.2905	-0.0066
688.4731	0.0048
688.6556	0.007
688.8382	-0.0487
689.0207	0.0179
689.2032	0.0285
689.3857	-0.0151
689.5681	0.0117
689.7506	0.0164
689.933	0.0112
690.1154	0.0146
690.2978	-0.0078
690.4802	0.024
690.6626	-0.003
690.8449	0.009
691.0272	-0.018
691.2095	-0.0294
691.3918	0.0035
691.5741	0.0074
691.7563	0.008
691.9386	0.0153
692.1208	0.0032
692.303	-0.0063
692.4852	0.013
692.6673	-0.0012
692.8495	-0.0049
693.0316	-0.0027
693.2137	0.0094
693.3958	0.0053
693.5778	0.0029
693.7599	0.0096
693.9419	-0.027
694.1239	-0.0152
694.3059	0.0113
694.4879	-0.005
694.6699	0.0103
694.8518	0.0116
695.0337	0.021
695.2157	0.0323
695.3975	0.0022
695.5794	-0.0093
695.7613	0.012
695.9431	0.0011
696.1249	0.0075
696.3067	-0.0239
696.4885	0.0168
696.6703	-0.004
696.852	-0.0104
697.0337	0.0297
697.2154	-0
697.3971	0.0171
697.5788	0.012
697.7605	-0.0142
697.9421	0.0226
698.1237	0.0067
698.3053	-0.0037
698.4869	0.0026
698.6685	-0.0086
698.85	0.035
699.0315	-0.0056
699.213	0.029
699.3945	-0.0048
699.576	0.029
699.7575	0.0155
699.9389	-0.0001
700.1203	0.006
700.3017	0.0055
700.4831	0.0343
700.6645	0.0318
700.8458	-0.0106
701.0271	0.0325
701.2084	0.0199
701.3897	0.0209
701.571	-0.0008
701.7523	0.0034
701.9335	0.0183
702.1147	0.0198
702.2959	0.0098
702.4771	0.0078
702.6583	0.0025
702.8394	-0.0192
703.0205	0.0059
703.2016	-0.0068
703.3827	-0.0334
703.5638	0.0049
703.7449	0.0281
703.9259	0.0146
704.1069	-0.0058
704.2879	0.0039
704.4689	-0.0281
704.6499	0.0209
704.8308	-0.0061
705.0117	-0.0062
705.1927	0.0315
705.3735	0.0186
705.5544	0.0211
705.7353	0.011
705.9161	-0.018
706.0969	0.0005
706.2777	0.015
706.4585	-0.0005
706.6393	0.0299
706.82	0.0033
707.0007	0.003
707.1815	-0.0033
707.3621	0.0257
707.5428	0.0219
707.7235	-0.0042
707.9041	0.0083
708.0847	0.0065
708.2653	0.0336
708.4459	-0.0232
708.6265	-0.0116
708.807	0.0073
708.9875	-0.0044
709.168	-0.0136
709.3485	-0.0024
709.529	0.0172
709.7095	-0.0102
709.8899	-0.0126
710.0703	0.0209
710.2507	-0.0013
710.4311	-0.0279
710.6115	0.0189
710.7918	0.0072
710.9721	0.0148
711.1524	0.0131
711.3327	-0.0125
711.513	-0.0176
711.6932	-0.0043
711.8735	0.0365
712.0537	-0.0246
712.2339	-0.0053
712.4141	0.0238
712.5942	-0.0179
712.7744	0.0247
712.9545	0.0057
713.1346	0.0218
713.3147	0.0131
713.4947	-0.0039
713.6748	0.0197
713.8548	-0.0016
714.0348	0.0064
714.2148	0.0056
714.3948	0.0051
714.5748	0.0129
714.7547	0.0101
714.9346	0.0022
715.1145	0.0144
715.2944	-0.0231
715.4743	0.0095
715.6541	-0.0327
715.834	0.0149
716.0138	0.0159
716.1936	-0.0017
716.3733	0.008
716.5531	-0.0221
716.7328	0.048
716.9126	0.0152
717.0923	-0.0283
717.2719	0.004
717.4516	0.0039
717.6312	-0.0013
717.8109	0.0317
717.9905	0.0185
718.1701	0.004
718.3496	-0.0071
718.5292	-0.0112
718.7087	0.0253
718.8882	0.0161
719.0677	0.0025
719.2472	0.008
719.4267	0.0007
719.6061	-0.0169
719.7856	0.0294
719.965	0.011
720.1443	0.0023
720.3237	-0.0032
720.5031	0.0011
720.6824	-0.008
720.8617	0.006
721.041	0.0193
721.2203	-0.0148
721.3995	-0.0054
721.5788	-0.0028
721.758	-0.0176
721.9372	0.0097
722.1164	-0.0251
722.2956	0.0206
722.4747	0.0052
722.6538	0.0066
722.8329	0.0278
723.012	-0.0155
723.1911	0.0042
723.3702	0.0084
723.5492	0.009
723.7282	-0.0035
723.9072	-0.011
724.0862	-0.0089
724.2652	0.0201
724.4441	-0.0211
724.623	0.0071
724.8019	-0.005
724.9808	0.0241
725.1597	0.0138
725.3385	0.0207
725.5174	0.0289
725.6962	0.0054
725.875	-0.0001
726.0538	0.0094
726.2325	0.0263
726.4112	-0.0126
726.59	0.0113
726.7687	-0.0021
726.9474	-0.0029
727.126	0.0237
727.3047	-0.0193
727.4833	0.0121
727.6619	-0.021
727.8405	-0.0004
728.0191	0.0136
728.1976	0.0071
728.3762	0.0003
728.5547	-0.0055
728.7332	-0.0021
728.9116	0.0116
729.0901	-0.0078
729.2686	0.0127
729.447	-0.0045
729.6254	0.0133
729.8038	-0.0007
729.9821	-0.0221
730.1605	0.005
730.3388	-0.0052
730.5171	0.0119
730.6954	-0.005
730.8737	0.005
731.0519	0.0082
731.2302	0.0192
731.4084	-0.0145
731.5866	0.0234
731.7648	-0.0033
731.9429	0.0144
732.1211	-0.0018
732.2992	-0.0041
732.4773	-0.0096
732.6554	-0.0068
732.8335	0.0191
733.0115	0.0199
733.1896	-0.0106
733.3676	0.009
733.5456	0.016
733.7235	-0.0088
733.9015	0.0034
734.0794	-0.0134
734.2574	-0.0099
734.4353	0.0125
734.6131	-0.0053
734.791	0.0105
734.9689	-0.0118
735.1467	-0.0155
735.3245	0.0108
735.5023	0.0051
735.68	0.0027
735.8578	0.013
736.0355	0.0029
736.2132	0.0061
736.3909	-0.0014
736.5686	-0.016
736.7463	-0.0258
736.9239	0.0221
737.1015	-0.0145
737.2791	0.0125
737.4567	0.0104
737.6343	-0.0106
737.8118	0.0186
737.9894	0.0021
738.1669	0.0114
738.3444	0.0321
738.5218	-0.0035
738.6993	0.0136
738.8767	0.0116
739.0541	0.0136
739.2315	-0.0024
739.4089	0.0291
739.5863	0.0073
739.7636	-0.0049
739.9409	-0.0073
740.1182	-0.0004
740.2955	-0.0058
740.4728	-0.0108
740.65	-0.0281
740.8272	0.0195
741.0044	-0.0146
741.1816	0.0245
741.3588	-0.0278
741.5359	-0.0282
741.7131	0.0129
741.8902	-0.0005
742.0673	-0.028
742.2444	0.0462
742.4214	0.0264
742.5985	0.0139
742.7755	-0.0187
742.9525	-0.028
743.1295	-0.0246
743.3064	-0.0168
743.4834	0.0024
743.6603	0.0451
743.8372	-0.0468
744.0141	0.0164
744.191	0.0157
744.3678	-0.0344
744.5446	-0.0103
744.7215	-0.0071
744.8982	-0.0238
745.075	0.0216
745.2518	0.0054
745.4285	-0.0018
745.6052	-0.0253
745.7819	0.0122
745.9586	0.01
746.1353	-0.0282
746.3119	0.0032
746.4885	0.0097
746.6651	0.0358
746.8417	0.011
747.0183	0.0192
747.1948	0.0308
747.3714	-0.0171
747.5479	0.0076
747.7244	0.0044
747.9008	-0.0276
748.0773	0.0306
748.2537	-0.0227
748.4301	-0.0111
748.6065	-0.0077
748.7829	-0.0452
748.9593	-0.0132
749.1356	-0.0035
749.3119	-0.0154
749.4882	0.0128
749.6645	-0.0025
749.8408	0.031
750.017	0.0129
750.1933	-0.0071
750.3695	0.0162
750.5457	-0.0131
750.7218	-0.0098
750.898	-0.0126
751.0741	0.0022
751.2502	0.014
751.4263	0.0095
751.6024	0.0055
751.7784	-0.0022
751.9545	-0.0026
752.1305	0.0015
752.3065	0.019
752.4825	-0.0044
752.6584	-0.0101
752.8344	-0.0102
753.0103	-0.0356
753.1862	0.0177
753.3621	0.0065
753.5379	0.0053
753.7138	0.0168
753.8896	-0.0046
754.0654	-0.0048
754.2412	0.0052
754.417	0.0195
754.5927	-0.0167
754.7685	0.0204
754.9442	0.0186
755.1199	0.0177
755.2956	-0.0077
755.4712	-0.0215
755.6469	0.0031
755.8225	0.0249
755.9981	0.0153
756.1736	0.0079
756.3492	-0.0005
756.5248	0.0063
756.7003	-0.0074
756.8758	-0.0051
757.0513	0.0083
757.2267	0.0153
757.4022	0.0118
757.5776	-0.0087
757.753	0.0221
757.9284	0.006
758.1038	-0.0006
758.2791	0.0111
758.4545	-0.0178
758.6298	-0.0064
758.8051	0.0098
758.9803	-0.001
759.1556	-0.0093
759.3308	0.0027
759.506	0.0042
759.6812	0.0128
759.8564	-0.0007
760.0316	-0.0039
760.2067	0.0154
760.3819	-0.0018
760.557	-0.0075
760.732	0.0054
760.9071	0.0273
761.0821	-0.012
761.2572	-0.0025
761.4322	0.0104
761.6072	-0.0031
761.7821	-0.0267
761.9571	-0.0043
762.132	0.0011
762.3069	0.0071
762.4818	-0.0031
762.6567	-0.0112
762.8316	0.0238
763.0064	0.0173
763.1812	0.0024
763.356	-0.0243
763.5308	0.0184
763.7055	-0.0059
763.8803	0.0165
764.055	-0.0016
764.2297	-0.013
764.4044	-0.0081
764.579	0.0127
764.7537	0.0075
764.9283	0.0095
765.1029	0.0079
765.2775	0.0164
765.4521	0.007
765.6266	-0.0072
765.8011	0.0092
765.9756	0.0206
766.1501	-0.0286
766.3246	0.0008
766.4991	0.0096
766.6735	0.036
766.8479	-0.0101
767.0223	0.0143
767.1967	0.0067
767.371	0.014
767.5454	0.0309
767.7197	0.043
767.894	0.0081
768.0683	0.0054
768.2425	-0.0122
768.4168	0.009
768.591	-0.0132
768.7652	-0.0019
768.9394	-0.0224
769.1135	-0.0001
769.2877	0.0388
769.4618	0.0157
769.6359	-0.0303
769.81	0.0137
769.984	-0.0079
770.1581	0.0218
770.3321	0.0062
770.5061	-0.0082
770.6801	0.0145
770.8541	0.0226
771.028	0.0297
771.202	0.0342
771.3759	0.032
771.5498	-0.0046
771.7236	-0.0005
771.8975	-0.0033
772.0713	0.0139
772.2451	-0.0102
772.4189	0.0112
772.5927	-0.0299
772.7665	-0.0163
772.9402	-0.0043
773.1139	0.0191
773.2876	-0.0066
773.4613	0.0027
773.635	0.0453
773.8086	0.0431
773.9822	0.0108
774.1558	0.0402
774.3294	0.0179
774.503	-0.0015
774.6765	0.0368
774.8501	-0.0028
775.0236	0.0091
775.1971	0.0107
775.3705	-0.0228
775.544	-0.0597
775.7174	-0.009
775.8908	0.0204
776.0642	-0.0018
776.2376	0.0203
776.4109	0.0103
776.5843	-0.042
776.7576	0.0093
776.9309	0.0645
777.1041	-0.0235
777.2774	0.0142
777.4506	-0.0347
777.6238	-0.0182
777.797	-0.016
777.9702	0.0346
778.1434	0.0247
778.3165	-0.039
778.4896	-0.023
778.6627	0.0236
778.8358	-0.0362
779.0089	-0.028
779.1819	0.013
779.3549	-0.0093
779.5279	-0.0046
779.7009	0.0095
779.8739	0.0457
780.0468	-0.0147
780.2197	0.0019
780.3926	-0.0193
780.5655	0.0265
780.7384	0.0072
780.9112	0.0417
781.0841	-0.001
781.2569	0.0054
781.4297	0.0194
781.6024	0.0281
781.7752	0.072
781.9479	0.047
782.1206	0.021
782.2933	0.0022
782.466	0.0004
782.6386	-0.0175
782.8113	0.0381
782.9839	-0.0307
783.1565	-0.0115
783.329	0.0087
783.5016	-0.0314
783.6741	0.0205
783.8466	0.0441
784.0191	0.0026
784.1916	-0.0087
784.3641	0.0326
784.5365	0.0241
784.7089	-0.0221
784.8813	0.0408
785.0537	0.0166
785.2261	0.0021
785.3984	0.0027
785.5707	-0.0153
785.743	0.0217
785.9153	-0.0403
786.0876	-0.0303
786.2598	0.0006
786.432	-0.0316
786.6042	0.0299
786.7764	-0.0166
786.9486	-0.0029
787.1207	0.0427
787.2928	0.03
787.4649	-0.0052
787.637	-0.0157
787.8091	0.0233
787.9811	0.0391
788.1532	0.0271
788.3252	-0.0166
788.4972	0.0043
788.6691	0.01
788.8411	-0.0298
789.013	0.0244
789.1849	-0.0269
789.3568	0.03
789.5287	0.0345
789.7005	-0.0285
789.8723	-0.0412
790.0442	-0.0639
790.2159	0.0221
790.3877	0.0839
790.5595	0.0255
790.7312	0.0059
790.9029	-0.0153
791.0746	-0.0554
791.2463	-0.0206
791.4179	-0.0075
791.5896	0.0454
791.7612	0.0309
791.9328	-0.0279
792.1044	-0.0288
792.2759	-0.0266
792.4474	0.001
792.619	-0.0454
792.7905	0.028
792.9619	0.0841
793.1334	0.0305
793.3048	0.0754
793.4762	0.0276
793.6476	-0.0501
793.819	-0.0234
793.9904	-0.0225
794.1617	-0.0013
794.333	0.0051
794.5043	0.0439
794.6756	0.0086
794.8469	-0.018
795.0181	-0.0113
795.1893	0.0685
795.3605	0.0614
795.5317	-0.0111
795.7029	-0.0182
795.874	-0.0325
796.0452	-0.0142
796.2163	0.0503
796.3873	-0.0156
796.5584	-0.0252
796.7294	-0.0387
796.9005	0.0396
797.0715	-0.0173
797.2425	0.0793
797.4134	0.0221
797.5844	-0.0278
797.7553	-0.0992
797.9262	0.0391
798.0971	0.0157
798.2679	0.026
798.4388	-0.0036
798.6096	0.0294
798.7804	0.042
798.9512	0.0225
799.122	0.0289
799.2927	0.054
799.4635	-0.0317
799.6342	-0.0785
799.8049	0.0332
799.9755	-0.0663
800.1462	-0.0002
800.3168	0.0158
800.4874	-0.064
800.658	0.0182
800.8286	-0.0805
800.9991	0.0141
801.1696	0.0041
801.3402	-0.0495
801.5106	-0.0045
801.6811	-0.0441
801.8516	0.0726
802.022	0.0667
802.1924	-0.0401
802.3628	0.0322
802.5332	0.0554
802.7035	0.0571
802.8739	0.034
803.0442	-0.0022
803.2145	0.0463
803.3847	0.0318
803.555	0.0183
803.7252	0.0445
803.8954	-0.0349
804.0656	-0.0775
804.2358	0.0477
804.4059	0.0665
804.5761	-0.0097
804.7462	-0.0367
804.9163	-0.008
805.0864	0.005
805.2564	-0.0553
805.4264	0.0148
805.5965	-0.0086
805.7665	-0.0558
805.9364	-0.0528
806.1064	-0.0002
806.2763	0.0281
806.4462	-0.0038
806.6161	0.0354
806.786	-0.0012
806.9559	0.0503
807.1257	-0.0398
807.2955	0.0338
807.4653	-0.0108
807.6351	-0.0051
807.8048	0.0338
807.9746	-0.0088
808.1443	-0.0699
808.314	0.0128
808.4837	0.0598
808.6533	-0.0201
808.8229	0.011
808.9926	0.0471
809.1622	0.0314
809.3317	-0.0444
809.5013	-0.0421
809.6708	0.0433
809.8403	0.0129
810.0098	0.0647
810.1793	0.0124
810.3488	-0.0022
810.5182	0.1334
810.6876	0.0256
810.857	0.0511
811.0264	-0.0249
811.1958	0.1122
811.3651	-0.0299
811.5344	0.0314
811.7037	0.0285
811.873	0.0455
812.0422	-0.0315
812.2115	-0.0529
812.3807	-0.1769
812.5499	-0.0231
812.7191	0.0521
812.8882	-0.0982
813.0574	-0.0566
813.2265	-0.0394
813.3956	-0.0266
813.5646	0.3342
813.7337	0.0069
813.9027	-0.0223
814.0718	0.0126
814.2407	0.0331
814.4097	0.0417
814.5787	0.0457
814.7476	-0.006
814.9165	-0.0137
815.0854	-0.0652
815.2543	0.0733
815.4232	0.0845
815.592	0.1043
815.7608	-0.2082
815.9296	-0.0578
816.0984	0.0555
816.2671	-0.1216
816.4359	0.0591
816.6046	-0.0575
816.7733	-0.0461
816.942	-0.085
817.1106	-0.0397
817.2793	-0.0062
817.4479	-0.0836
817.6165	0.0266
817.785	0.0731
817.9536	-0.0954
818.1221	-0.0003
818.2906	-0.0743
818.4591	0.0825
818.6276	-0.0195
818.7961	0.0324
818.9645	0.0683
819.1329	0.0872
819.3013	-0.0542
819.4697	-0.1356
819.638	0.0466
819.8064	-0.05
819.9747	-0.0671
820.143	0.0073
820.3113	0.022
820.4795	0.1035
820.6477	0.0831
820.816	0.0894
820.9842	0.052
821.1523	-0.0229
821.3205	0.0557
821.4886	0.0038
821.6567	-0.0481
821.8248	0.1934
821.9929	-0.1838
822.1609	-0.057
822.329	0.0563
822.497	0.0301
822.665	-0.0521
822.833	-0.0261
823.0009	-0.0343
823.1688	-0.0779
823.3367	0.0774
823.5046	0.1104
823.6725	-0.0529
823.8404	0.0289
824.0082	-0.0746
824.176	-0.1298
824.3438	0.0999
824.5116	-0.1102
824.6793	-0.0165
824.847	0.1758
825.0147	-0.1152
825.1824	0.0348
825.3501	-0.0252
825.5177	-0.0885
825.6854	-0.0391
825.853	-0.124
826.0206	-0.0912
826.1881	0.1246
826.3557	-0.0179
826.5232	0.0514
826.6907	0.0091
826.8582	-0.0133
827.0257	0.1023
827.1931	0.0339
827.3605	-0.0544
827.528	0.3812
827.6953	-0.2516
827.8627	-0.1969
828.03	0.028
828.1974	-0.0909
828.3647	-0.0367
828.532	-0.155
828.6992	0.0834
828.8665	-0.1731
829.0337	0.0728
829.2009	-0.1515
829.3681	-0.0371
829.5352	-0.0179
829.7024	0.0262
829.8695	0.0473
830.0366	0.1971
830.2037	0.1054
830.3707	0.0249
830.5378	-0.0625
830.7048	-0.2184
830.8718	-0.1004
831.0388	-0.2147
831.2057	-0.0298
831.3727	-0.298
831.5396	0.2554
831.7065	-0.938
831.8734	-0.1776
832.0402	0.1257
832.2071	-0.424
832.3739	-0.2226
832.5407	-1.5911
832.7075	0.0278
832.8742	-0
833.041	0.0192
833.2077	0.1878
833.3744	0.1904
833.541	-0.1071
833.7077	-0.0805
833.8743	-0.0131
834.0409	0.238
834.2075	0.1171
834.3741	-0.2094
834.5407	-0.0719
834.7072	0.2381
834.8737	0.081
835.0402	1.113
835.2067	-0.0141
835.3731	-0.0062
835.5395	0.0984
835.706	-0.0312
835.8723	-0.0911
836.0387	0.1635
836.2051	-0.0686
836.3714	0.3155
836.5377	0.3435
836.704	0.4786
836.8703	-0.288
837.0365	-0.3931
837.2027	-0
837.3689	0.2534
837.5351	0.2432
837.7013	0.2285
837.8674	-0.5026
838.0335	0.0259
838.1997	0.3258
838.3657	-0
838.5318	1.2247
838.6978	0.2363
838.8639	-0.341
839.0299	-0.225
839.1958	0.0132
839.3618	0.1022
839.5277	0.114
839.6937	-0.199
839.8596	-0.4281
840.0254	-0.1054
840.1913	-0.3477
840.3571	0.0292
840.523	-0
840.6888	0.0308
840.8545	-0.7433
841.0203	-0.0873
841.186	-0.0941
841.3517	-0.0016
841.5174	0.0924
841.6831	-0.0385
841.8488	0.5152
842.0144	-0.2686
842.18	0.493
842.3456	0.0298
842.5112	-0
842.6767	0.0856
842.8422	-0.1786
843.0077	-0.0817
843.1732	0.4242
843.3387	0.524
843.5042	-0
843.6696	-0.1091
843.835	0.051
844.0004	-0.2832
844.1657	0.3245
844.3311	-0.266
844.4964	0.3596
844.6617	-0.153
844.827	-0
844.9923	0.019
845.1575	-0.1582
845.3227	-0.4121
845.4879	0.3592
845.6531	0.1242
845.8183	0.4045
845.9834	-0
846.1485	0.1458
846.3136	-0.066
846.4787	-0
846.6438	-0.0639
846.8088	0.0187
846.9738	-0.7145
847.1388	0.4352
847.3038	-0.1684
847.4687	-0
847.6337	0.0826
847.7986	-0.3454
847.9635	-0.2475
848.1284	-0
848.2932	0.1243
848.458	-0
848.6228	-0.0574
848.7876	-0.2311
848.9524	-0
849.1172	-1.5511
849.2819	0.2218
849.4466	0.4978
849.6113	0.1638
849.7759	0.0922
849.9406	-0.0991
850.1052	-1.0496
850.2698	0.8888
850.4344	-0.8817
850.599	0.3612
850.7635	0.3665
850.928	0.3555
851.0925	0.188
851.257	-0.241
851.4215	0.0582
851.5859	0.0275
851.7503	-0
851.9147	-0.0853
852.0791	-0.1139
852.2434	-0.0996
852.4078	-0
852.5721	0.4534
852.7364	-0.2988
852.9007	-0.3079
853.0649	-0
853.2291	-0.0933
853.3934	-0
853.5575	0.6857
853.7217	0.1358
853.8859	-0.1137
854.05	-0.6932
854.2141	-0
854.3782	-0.233
854.5423	0.0763
854.7063	-0.1562
854.8703	0.0219
855.0343	-0.0866
855.1983	-0.016
855.3623	-0.1782
855.5262	-0
855.6901	0.4275
855.854	0.0978
856.0179	-0.0328
856.1818	0.9725
856.3456	0.3378
856.5094	-0.9161
856.6732	0.0395
856.837	-1.1288
857.0008	-0.0553
857.1645	-0.3491
857.3282	-0.2948
857.4919	-0.2224
857.6556	-0.1822
857.8192	-0.186
857.9828	-0.2571
858.1465	0.2769
858.31	-0
858.4736	-0.6379
858.6372	0.1003
858.8007	-0.0921
858.9642	0.3375
859.1277	-0
859.2911	-0.2347
859.4546	-0
859.618	0.0782
859.7814	0.2775
859.9448	0.46
860.1081	-0
860.2715	-1.7076
860.4348	-0
860.5981	-0
860.7614	-0
860.9246	-0.0021
861.0879	-0.0019
861.2511	-0
861.4143	-0.588
861.5774	-0.2403
861.7406	0.8948
861.9037	-0
862.0668	-1.0268
862.2299	-0.1748
862.393	-0
862.556	0.3042
862.7191	-0.4677
862.8821	0.0964
863.0451	-0
863.208	-0.2759
863.371	-0.2904
863.5339	0.1889
863.6968	-0.0706
863.8597	-0
864.0225	-0.1882
864.1854	-0
864.3482	-0
864.511	1.001
864.6737	-0.0832
864.8365	0.3197
864.9992	-0
865.1619	-0.6632
865.3246	-1.7993
865.4873	-0.9108
865.65	0.7082
865.8126	0.2174
865.9752	-0.2503
866.1378	0.2056
866.3004	-0.3415
866.4629	-1.1234
866.6254	-0.5568
866.7879	0.1752
866.9504	-0.5294
867.1129	0.4872
867.2753	-0.1164
867.4377	-0.0317
867.6001	-0.4413
867.7625	0.2218
867.9249	-0
868.0872	0.5668
868.2495	0.5275
868.4118	-0
868.5741	-0.1364
868.7363	-0.7728
868.8986	-0.896
869.0608	-0.6722
869.223	-0.3687
869.3851	-0
869.5473	-0.0264
869.7094	-0
869.8715	-0.275
870.0336	0.045
870.1957	-0.8328
870.3577	0.057
870.5197	0.4809
870.6817	-0.9651
870.8437	-0.23
871.0057	0.0331
871.1676	-0.0516
871.3295	0.2437
871.4914	-0
871.6533	0.2673
871.8151	0.4647
871.977	-0.5837
872.1388	-0.2614
872.3006	-0.4995
872.4623	-0.7468
872.6241	-0.0993
872.7858	0.1899
872.9475	-0
873.1092	-0
873.2709	0.3301
873.4325	-1.0634
873.5941	-0
873.7557	-0
873.9173	0.0603
874.0789	0.2799
874.2404	-0
874.4019	0.0647
874.5634	-0
874.7249	0.154
874.8863	-0.1064
875.0478	-0.0403
875.2092	1.0198
875.3706	-0
875.5319	-0
875.6933	0.1285
875.8546	-0.0334
876.0159	0.2941
876.1772	-0.1568
876.3385	-0
876.4997	-0.2389
876.6609	0.6129
876.8221	-0
876.9833	0.1673
877.1445	0.6329
877.3056	-1.0757
877.4667	-0.8328
877.6278	-0
877.7889	-0
877.9499	0.6837
878.111	-0.7591
878.272	1.3176
878.433	-0.1683
878.5939	1.5156
878.7549	-0
878.9158	-0
879.0767	0.0631
879.2376	-0.3435
879.3984	0.8785
879.5593	-0.0709
879.7201	-1.0634
879.8809	-0.4942
880.0417	-0.3349
880.2024	-0.0365
880.3632	-0
880.5239	0.3612
880.6846	-0.6657
880.8452	0.1766
881.0059	-0
881.1665	0.2659
881.3271	0.9136
881.4877	0.2846
881.6483	-1.032
881.8088	-0
881.9693	-0
882.1298	-0
882.2903	-0
