Data from D4ACN5uM440nmA_Absorbance_13-50-24-532.txt Node
Date: Fri Feb 21 13:50:24 GMT 2025
User: LASERRRRR
Spectrometer: FLMT03099
Trigger mode: 0
Integration Time (sec): 1.500000E-2
Scans to average: 1
Electric dark correction enabled: true
Nonlinearity correction enabled: false
Boxcar width: 0
XAxis mode: Wavelengths
Number of Pixels in Spectrum: 3648
>>>>>Begin Spectral Data<<<<<
179.3399	-0
179.5586	-0
179.7771	-0
179.9957	-0.0885
180.2143	-0
180.4329	0.0148
180.6514	-0
180.8699	0.2931
181.0885	-0
181.307	0.0846
181.5255	0.0273
181.744	-0
181.9625	0.2318
182.181	0.1704
182.3994	-0.5934
182.6179	-0
182.8363	-0
183.0547	-0.3948
183.2732	0.1017
183.4916	0.2189
183.71	0.1545
183.9284	0.1314
184.1467	0.0302
184.3651	-0.0365
184.5835	0.3309
184.8018	0.0829
185.0201	0.2619
185.2385	0.1606
185.4568	0.0746
185.6751	0.1695
185.8934	0.0459
186.1117	0.0121
186.3299	0.2682
186.5482	0.2717
186.7664	0.0635
186.9847	-0.0088
187.2029	0.3531
187.4211	-0.0105
187.6393	0.0333
187.8575	0.2995
188.0757	0.5658
188.2939	0.0669
188.512	0.091
188.7302	0.2302
188.9483	0.6416
189.1665	0.6217
189.3846	0.3879
189.6027	0.1611
189.8208	0.3232
190.0389	0.0858
190.257	0.0199
190.475	-0.074
190.6931	0.1144
190.9111	0.1149
191.1292	0.073
191.3472	0.0916
191.5652	0.2068
191.7832	0.1175
192.0012	0.2154
192.2192	0.2804
192.4371	0.1261
192.6551	0.1529
192.873	0.2069
193.091	0.1041
193.3089	0.2243
193.5268	0.3101
193.7447	0.2059
193.9626	0.1693
194.1805	0.2101
194.3984	0.2387
194.6162	0.1926
194.8341	0.2648
195.0519	0.1858
195.2697	0.2085
195.4875	0.346
195.7054	0.305
195.9231	0.2539
196.1409	0.3273
196.3587	0.3347
196.5765	0.3129
196.7942	0.3503
197.012	0.328
197.2297	0.3663
197.4474	0.3894
197.6651	0.3549
197.8828	0.3091
198.1005	0.48
198.3182	0.4227
198.5358	0.3833
198.7535	0.418
198.9711	0.3867
199.1888	0.4246
199.4064	0.4552
199.624	0.3482
199.8416	0.3974
200.0592	0.3867
200.2767	0.4066
200.4943	0.4073
200.7119	0.4177
200.9294	0.4393
201.1469	0.4443
201.3645	0.4421
201.582	0.4045
201.7995	0.4506
202.017	0.4117
202.2344	0.3796
202.4519	0.3608
202.6694	0.3711
202.8868	0.4061
203.1042	0.365
203.3217	0.4181
203.5391	0.3874
203.7565	0.3889
203.9739	0.3823
204.1913	0.3702
204.4086	0.3599
204.626	0.3662
204.8433	0.3807
205.0607	0.3446
205.278	0.3451
205.4953	0.3218
205.7126	0.3645
205.9299	0.3222
206.1472	0.3474
206.3644	0.3305
206.5817	0.3331
206.7989	0.3319
207.0162	0.332
207.2334	0.3608
207.4506	0.3179
207.6678	0.3105
207.885	0.3093
208.1022	0.3294
208.3194	0.297
208.5365	0.3045
208.7537	0.2995
208.9708	0.2956
209.1879	0.2834
209.405	0.2784
209.6222	0.2803
209.8392	0.2837
210.0563	0.2687
210.2734	0.2661
210.4905	0.2863
210.7075	0.2788
210.9245	0.2743
211.1416	0.2674
211.3586	0.2604
211.5756	0.2293
211.7926	0.2658
212.0096	0.268
212.2265	0.2488
212.4435	0.2662
212.6604	0.2728
212.8774	0.2363
213.0943	0.2636
213.3112	0.2445
213.5281	0.2524
213.745	0.2446
213.9619	0.2366
214.1788	0.254
214.3956	0.2558
214.6125	0.2572
214.8293	0.261
215.0461	0.2497
215.2629	0.242
215.4798	0.2541
215.6965	0.2483
215.9133	0.2386
216.1301	0.2619
216.3469	0.2482
216.5636	0.2383
216.7803	0.2546
216.9971	0.2693
217.2138	0.2575
217.4305	0.2414
217.6472	0.2389
217.8639	0.2547
218.0805	0.2537
218.2972	0.2452
218.5138	0.2582
218.7305	0.2568
218.9471	0.2485
219.1637	0.2777
219.3803	0.256
219.5969	0.2548
219.8135	0.2638
220.0301	0.2593
220.2466	0.262
220.4632	0.2494
220.6797	0.2677
220.8962	0.2603
221.1127	0.2665
221.3292	0.2653
221.5457	0.2772
221.7622	0.2744
221.9787	0.2809
222.1951	0.2677
222.4116	0.2787
222.628	0.2782
222.8444	0.2669
223.0608	0.2796
223.2772	0.2828
223.4936	0.2865
223.71	0.2931
223.9264	0.2937
224.1427	0.2894
224.3591	0.2769
224.5754	0.2824
224.7917	0.2902
225.008	0.3037
225.2243	0.2969
225.4406	0.291
225.6569	0.3038
225.8732	0.3012
226.0894	0.2935
226.3057	0.2979
226.5219	0.3103
226.7381	0.322
226.9543	0.3064
227.1705	0.315
227.3867	0.3166
227.6029	0.3267
227.8191	0.3312
228.0352	0.341
228.2513	0.3504
228.4675	0.3472
228.6836	0.3444
228.8997	0.3502
229.1158	0.3541
229.3319	0.3558
229.548	0.3521
229.764	0.3719
229.9801	0.3767
230.1961	0.3743
230.4121	0.364
230.6282	0.3807
230.8442	0.3794
231.0602	0.3807
231.2761	0.377
231.4921	0.3886
231.7081	0.3947
231.924	0.3919
232.14	0.4044
232.3559	0.4056
232.5718	0.4203
232.7877	0.4047
233.0036	0.4075
233.2195	0.4012
233.4353	0.4144
233.6512	0.4178
233.867	0.4192
234.0829	0.431
234.2987	0.4191
234.5145	0.4258
234.7303	0.4399
234.9461	0.4307
235.1619	0.4299
235.3776	0.442
235.5934	0.4343
235.8091	0.4432
236.0249	0.4501
236.2406	0.4402
236.4563	0.4534
236.672	0.4376
236.8877	0.4415
237.1034	0.45
237.319	0.4542
237.5347	0.4628
237.7503	0.4439
237.966	0.4591
238.1816	0.4524
238.3972	0.4561
238.6128	0.4648
238.8284	0.4674
239.0439	0.4553
239.2595	0.4647
239.475	0.4627
239.6906	0.464
239.9061	0.4538
240.1216	0.4603
240.3371	0.4615
240.5526	0.4629
240.7681	0.458
240.9836	0.4617
241.199	0.4565
241.4145	0.4488
241.6299	0.4448
241.8453	0.4341
242.0607	0.4352
242.2761	0.4363
242.4915	0.4245
242.7069	0.4144
242.9223	0.4166
243.1376	0.4087
243.353	0.4024
243.5683	0.3931
243.7836	0.385
243.9989	0.3723
244.2142	0.3739
244.4295	0.3701
244.6448	0.3593
244.86	0.3479
245.0753	0.3379
245.2905	0.3386
245.5057	0.329
245.721	0.3358
245.9362	0.3255
246.1514	0.3171
246.3665	0.3111
246.5817	0.2954
246.7969	0.2877
247.012	0.2827
247.2271	0.2891
247.4423	0.2824
247.6574	0.2842
247.8725	0.2752
248.0876	0.2669
248.3026	0.2649
248.5177	0.2526
248.7328	0.2491
248.9478	0.2511
249.1628	0.2395
249.3779	0.2369
249.5929	0.2417
249.8079	0.2375
250.0228	0.2254
250.2378	0.2277
250.4528	0.224
250.6677	0.2186
250.8827	0.2124
251.0976	0.2133
251.3125	0.2172
251.5274	0.2137
251.7423	0.2056
251.9572	0.2036
252.172	0.2058
252.3869	0.2051
252.6017	0.2027
252.8166	0.1979
253.0314	0.1971
253.2462	0.2036
253.461	0.2031
253.6758	0.1905
253.8906	0.1947
254.1053	0.196
254.3201	0.1882
254.5348	0.1833
254.7496	0.1798
254.9643	0.1876
255.179	0.1867
255.3937	0.1855
255.6083	0.1926
255.823	0.185
256.0377	0.1823
256.2523	0.1797
256.467	0.1826
256.6816	0.1851
256.8962	0.1762
257.1108	0.1838
257.3254	0.1798
257.54	0.1836
257.7545	0.185
257.9691	0.1808
258.1836	0.1734
258.3981	0.1801
258.6127	0.1739
258.8272	0.1804
259.0417	0.1742
259.2561	0.1703
259.4706	0.1804
259.6851	0.1719
259.8995	0.1724
260.114	0.1734
260.3284	0.1692
260.5428	0.1767
260.7572	0.1701
260.9716	0.1775
261.186	0.1742
261.4003	0.178
261.6147	0.1729
261.829	0.1822
262.0433	0.1778
262.2577	0.1748
262.472	0.174
262.6863	0.1807
262.9005	0.172
263.1148	0.1767
263.3291	0.1752
263.5433	0.1796
263.7576	0.1753
263.9718	0.1775
264.186	0.182
264.4002	0.1776
264.6144	0.186
264.8286	0.1803
265.0427	0.182
265.2569	0.1768
265.471	0.1804
265.6851	0.1769
265.8993	0.178
266.1134	0.1758
266.3275	0.1739
266.5415	0.1765
266.7556	0.1763
266.9697	0.1751
267.1837	0.1835
267.3978	0.1739
267.6118	0.1712
267.8258	0.1798
268.0398	0.1814
268.2538	0.1802
268.4677	0.1696
268.6817	0.1741
268.8957	0.1703
269.1096	0.1659
269.3235	0.177
269.5374	0.1776
269.7514	0.1771
269.9652	0.1727
270.1791	0.1711
270.393	0.1661
270.6068	0.1734
270.8207	0.169
271.0345	0.1721
271.2483	0.1643
271.4622	0.1728
271.676	0.1687
271.8897	0.1628
272.1035	0.1779
272.3173	0.1689
272.531	0.1672
272.7448	0.1665
272.9585	0.1614
273.1722	0.1642
273.3859	0.1658
273.5996	0.1707
273.8133	0.1712
274.0269	0.1623
274.2406	0.1647
274.4542	0.163
274.6679	0.1683
274.8815	0.1728
275.0951	0.1731
275.3087	0.1702
275.5223	0.1677
275.7358	0.1678
275.9494	0.1712
276.1629	0.1744
276.3765	0.1712
276.59	0.165
276.8035	0.168
277.017	0.1711
277.2305	0.1675
277.444	0.1736
277.6574	0.1696
277.8709	0.1774
278.0843	0.1706
278.2978	0.1707
278.5112	0.1729
278.7246	0.1702
278.938	0.1759
279.1513	0.1837
279.3647	0.1783
279.5781	0.173
279.7914	0.1704
280.0047	0.1746
280.2181	0.1755
280.4314	0.176
280.6447	0.1785
280.8579	0.1718
281.0712	0.1795
281.2845	0.1775
281.4977	0.1779
281.711	0.1793
281.9242	0.1754
282.1374	0.1778
282.3506	0.1791
282.5638	0.1736
282.7769	0.1678
282.9901	0.1743
283.2033	0.18
283.4164	0.177
283.6295	0.1775
283.8426	0.1824
284.0557	0.1802
284.2688	0.1818
284.4819	0.1782
284.695	0.1808
284.908	0.1812
285.1211	0.1869
285.3341	0.1782
285.5471	0.1855
285.7601	0.1838
285.9731	0.1841
286.1861	0.1843
286.3991	0.1871
286.612	0.186
286.825	0.1871
287.0379	0.1826
287.2508	0.1844
287.4637	0.1872
287.6766	0.192
287.8895	0.1875
288.1024	0.1962
288.3152	0.1917
288.5281	0.1887
288.7409	0.1978
288.9538	0.1967
289.1666	0.1931
289.3794	0.1882
289.5922	0.1914
289.8049	0.1948
290.0177	0.1873
290.2304	0.1977
290.4432	0.1957
290.6559	0.1959
290.8686	0.1976
291.0813	0.1861
291.294	0.1904
291.5067	0.1906
291.7194	0.1927
291.932	0.1888
292.1447	0.1956
292.3573	0.1917
292.5699	0.198
292.7825	0.1903
292.9951	0.1917
293.2077	0.1929
293.4203	0.1941
293.6328	0.1909
293.8454	0.1994
294.0579	0.1942
294.2704	0.1992
294.4829	0.194
294.6954	0.1935
294.9079	0.1866
295.1204	0.189
295.3328	0.2007
295.5453	0.1956
295.7577	0.1926
295.9701	0.1965
296.1825	0.1993
296.3949	0.1969
296.6073	0.1909
296.8197	0.1925
297.0321	0.1941
297.2444	0.1867
297.4567	0.1948
297.6691	0.1894
297.8814	0.1954
298.0937	0.1913
298.306	0.1956
298.5182	0.1972
298.7305	0.1945
298.9428	0.1931
299.155	0.1897
299.3672	0.1909
299.5794	0.2004
299.7916	0.1968
300.0038	0.194
300.216	0.192
300.4282	0.1881
300.6403	0.1979
300.8525	0.1946
301.0646	0.1951
301.2767	0.1923
301.4888	0.1963
301.7009	0.2001
301.913	0.1989
302.125	0.1978
302.3371	0.193
302.5491	0.1985
302.7612	0.2005
302.9732	0.2039
303.1852	0.1945
303.3972	0.1952
303.6092	0.1888
303.8211	0.1964
304.0331	0.1903
304.245	0.1888
304.457	0.1907
304.6689	0.1865
304.8808	0.1838
305.0927	0.1889
305.3046	0.1855
305.5164	0.189
305.7283	0.1835
305.9401	0.1737
306.152	0.1735
306.3638	0.1832
306.5756	0.1837
306.7874	0.1755
306.9992	0.1709
307.2109	0.1742
307.4227	0.1726
307.6344	0.1798
307.8462	0.1718
308.0579	0.1726
308.2696	0.1658
308.4813	0.1693
308.693	0.1666
308.9046	0.1642
309.1163	0.1603
309.328	0.1611
309.5396	0.1553
309.7512	0.1553
309.9628	0.1537
310.1744	0.1457
310.386	0.1487
310.5976	0.1476
310.8091	0.1533
311.0207	0.1474
311.2322	0.1456
311.4437	0.1454
311.6552	0.1475
311.8667	0.1437
312.0782	0.1385
312.2897	0.1392
312.5012	0.1437
312.7126	0.1324
312.924	0.1328
313.1355	0.1347
313.3469	0.132
313.5583	0.1314
313.7696	0.1295
313.981	0.1339
314.1924	0.1276
314.4037	0.1313
314.6151	0.1227
314.8264	0.1357
315.0377	0.126
315.249	0.1283
315.4603	0.1213
315.6716	0.1281
315.8828	0.1267
316.0941	0.1289
316.3053	0.1217
316.5165	0.1248
316.7277	0.1204
316.9389	0.1257
317.1501	0.126
317.3613	0.1221
317.5724	0.1208
317.7836	0.116
317.9947	0.1231
318.2058	0.1183
318.417	0.1213
318.6281	0.1177
318.8391	0.1231
319.0502	0.1188
319.2613	0.1219
319.4723	0.1135
319.6834	0.1264
319.8944	0.1169
320.1054	0.1142
320.3164	0.1133
320.5274	0.1209
320.7383	0.1253
320.9493	0.1196
321.1602	0.1165
321.3712	0.1228
321.5821	0.1141
321.793	0.127
322.0039	0.1136
322.2148	0.1186
322.4257	0.118
322.6365	0.1162
322.8474	0.1235
323.0582	0.121
323.269	0.1215
323.4798	0.1236
323.6906	0.1151
323.9014	0.1216
324.1122	0.1096
324.3229	0.1329
324.5337	0.1179
324.7444	0.1225
324.9551	0.1229
325.1658	0.1212
325.3765	0.1212
325.5872	0.123
325.7979	0.1261
326.0085	0.1194
326.2192	0.1158
326.4298	0.1227
326.6404	0.1226
326.851	0.1247
327.0616	0.1229
327.2722	0.1288
327.4828	0.1254
327.6933	0.125
327.9039	0.1246
328.1144	0.1193
328.3249	0.1314
328.5354	0.1243
328.7459	0.1219
328.9564	0.1229
329.1669	0.1296
329.3773	0.1298
329.5878	0.1219
329.7982	0.1293
330.0086	0.1259
330.219	0.1261
330.4294	0.1288
330.6398	0.1283
330.8502	0.1268
331.0605	0.1265
331.2708	0.1325
331.4812	0.1332
331.6915	0.1339
331.9018	0.1272
332.1121	0.1312
332.3224	0.1316
332.5326	0.1249
332.7429	0.1265
332.9531	0.1346
333.1633	0.1256
333.3735	0.1265
333.5837	0.1306
333.7939	0.1293
334.0041	0.1341
334.2143	0.1264
334.4244	0.1403
334.6346	0.1314
334.8447	0.1307
335.0548	0.1339
335.2649	0.1362
335.475	0.1358
335.685	0.1372
335.8951	0.1269
336.1051	0.1381
336.3152	0.1377
336.5252	0.1336
336.7352	0.1316
336.9452	0.1325
337.1552	0.1285
337.3652	0.1349
337.5751	0.1294
337.7851	0.1331
337.995	0.1395
338.2049	0.1367
338.4148	0.136
338.6247	0.1372
338.8346	0.1344
339.0445	0.1384
339.2543	0.1337
339.4642	0.1368
339.674	0.1353
339.8838	0.14
340.0936	0.1432
340.3034	0.1374
340.5132	0.1357
340.7229	0.1366
340.9327	0.147
341.1424	0.1376
341.3522	0.1384
341.5619	0.1489
341.7716	0.1458
341.9813	0.1439
342.1909	0.1489
342.4006	0.1497
342.6102	0.1465
342.8199	0.147
343.0295	0.1427
343.2391	0.1451
343.4487	0.1403
343.6583	0.1559
343.8679	0.148
344.0774	0.1477
344.287	0.1478
344.4965	0.1518
344.706	0.1527
344.9155	0.1503
345.125	0.1507
345.3345	0.157
345.544	0.1573
345.7534	0.153
345.9629	0.1564
346.1723	0.1596
346.3817	0.1573
346.5911	0.1525
346.8005	0.1598
347.0099	0.1542
347.2193	0.1601
347.4286	0.1665
347.638	0.1546
347.8473	0.166
348.0566	0.1637
348.2659	0.1579
348.4752	0.1573
348.6845	0.1657
348.8937	0.1585
349.103	0.1652
349.3122	0.1656
349.5214	0.1667
349.7306	0.1608
349.9398	0.1651
350.149	0.1646
350.3582	0.1719
350.5674	0.1674
350.7765	0.1789
350.9856	0.1625
351.1948	0.174
351.4039	0.1793
351.613	0.1715
351.822	0.1738
352.0311	0.1768
352.2402	0.1782
352.4492	0.1711
352.6582	0.1736
352.8672	0.1696
353.0762	0.1789
353.2852	0.1786
353.4942	0.1791
353.7032	0.1789
353.9121	0.1763
354.1211	0.1869
354.33	0.1819
354.5389	0.1787
354.7478	0.1832
354.9567	0.1857
355.1655	0.1846
355.3744	0.1852
355.5833	0.1857
355.7921	0.1909
356.0009	0.1848
356.2097	0.1732
356.4185	0.1811
356.6273	0.1861
356.8361	0.1936
357.0448	0.1913
357.2536	0.1899
357.4623	0.1881
357.671	0.1971
357.8797	0.2007
358.0884	0.1913
358.2971	0.1944
358.5057	0.1953
358.7144	0.1942
358.923	0.2008
359.1316	0.203
359.3402	0.199
359.5488	0.1965
359.7574	0.2112
359.966	0.2034
360.1746	0.2036
360.3831	0.21
360.5916	0.2073
360.8002	0.2112
361.0087	0.2022
361.2172	0.2109
361.4256	0.2098
361.6341	0.2055
361.8426	0.2163
362.051	0.2172
362.2594	0.2115
362.4678	0.2098
362.6762	0.2207
362.8846	0.2107
363.093	0.2234
363.3014	0.23
363.5097	0.2223
363.718	0.2277
363.9264	0.2291
364.1347	0.2265
364.343	0.2203
364.5513	0.2288
364.7595	0.2322
364.9678	0.2237
365.176	0.2263
365.3842	0.2349
365.5925	0.2307
365.8007	0.2274
366.0089	0.2404
366.217	0.2308
366.4252	0.2333
366.6333	0.2338
366.8415	0.2499
367.0496	0.2388
367.2577	0.2362
367.4658	0.233
367.6739	0.2417
367.882	0.2419
368.09	0.2377
368.2981	0.2415
368.5061	0.2429
368.7141	0.2461
368.9221	0.252
369.1301	0.2484
369.3381	0.2513
369.5461	0.2479
369.754	0.2476
369.962	0.2534
370.1699	0.2604
370.3778	0.263
370.5857	0.2536
370.7936	0.2565
371.0015	0.2558
371.2093	0.2585
371.4172	0.2562
371.625	0.2617
371.8328	0.2585
372.0406	0.2744
372.2484	0.2646
372.4562	0.2592
372.664	0.2672
372.8717	0.2668
373.0795	0.2711
373.2872	0.273
373.4949	0.2731
373.7026	0.2688
373.9103	0.2642
374.118	0.281
374.3256	0.2752
374.5333	0.2762
374.7409	0.2751
374.9485	0.2756
375.1561	0.2806
375.3637	0.2692
375.5713	0.2824
375.7789	0.2782
375.9864	0.2674
376.194	0.2829
376.4015	0.2755
376.609	0.282
376.8165	0.2826
377.024	0.2874
377.2315	0.2874
377.4389	0.2746
377.6464	0.2939
377.8538	0.2786
378.0612	0.2895
378.2686	0.2853
378.476	0.2946
378.6834	0.2869
378.8908	0.2965
379.0981	0.2958
379.3055	0.2909
379.5128	0.2886
379.7201	0.2942
379.9274	0.2974
380.1347	0.2992
380.342	0.2955
380.5492	0.2972
380.7565	0.2951
380.9637	0.3013
381.1709	0.3046
381.3781	0.3068
381.5853	0.3036
381.7925	0.3008
381.9997	0.3001
382.2068	0.2996
382.4139	0.3023
382.6211	0.311
382.8282	0.3161
383.0353	0.3027
383.2424	0.2979
383.4494	0.3031
383.6565	0.3166
383.8635	0.3062
384.0706	0.3111
384.2776	0.3009
384.4846	0.3149
384.6916	0.3073
384.8986	0.3084
385.1055	0.3201
385.3125	0.3114
385.5194	0.3149
385.7263	0.3121
385.9333	0.32
386.1402	0.3133
386.347	0.314
386.5539	0.316
386.7608	0.3116
386.9676	0.3138
387.1744	0.3157
387.3813	0.3149
387.5881	0.3018
387.7948	0.3101
388.0016	0.3198
388.2084	0.3103
388.4151	0.3137
388.6219	0.2988
388.8286	0.3132
389.0353	0.3146
389.242	0.3124
389.4487	0.3091
389.6553	0.2978
389.862	0.2966
390.0686	0.3125
390.2753	0.2983
390.4819	0.3012
390.6885	0.3052
390.8951	0.3076
391.1016	0.3043
391.3082	0.314
391.5147	0.2968
391.7213	0.2981
391.9278	0.2931
392.1343	0.291
392.3408	0.3009
392.5473	0.2959
392.7537	0.2887
392.9602	0.285
393.1666	0.2927
393.373	0.2989
393.5794	0.2844
393.7858	0.2848
393.9922	0.2868
394.1986	0.283
394.4049	0.2814
394.6113	0.287
394.8176	0.278
395.0239	0.2817
395.2302	0.2784
395.4365	0.2838
395.6428	0.2769
395.8491	0.2824
396.0553	0.2719
396.2615	0.2839
396.4678	0.2776
396.674	0.2713
396.8802	0.2651
397.0863	0.2686
397.2925	0.2787
397.4987	0.2677
397.7048	0.2771
397.9109	0.2714
398.117	0.27
398.3231	0.2657
398.5292	0.2726
398.7353	0.2686
398.9413	0.2659
399.1474	0.2672
399.3534	0.2684
399.5594	0.2621
399.7654	0.2616
399.9714	0.2639
400.1774	0.2588
400.3833	0.2619
400.5893	0.2705
400.7952	0.2762
401.0011	0.2677
401.207	0.2716
401.4129	0.265
401.6188	0.2611
401.8247	0.268
402.0305	0.2649
402.2364	0.273
402.4422	0.2687
402.648	0.2732
402.8538	0.2738
403.0596	0.2615
403.2654	0.2581
403.4711	0.2535
403.6768	0.261
403.8826	0.2675
404.0883	0.2619
404.294	0.2662
404.4997	0.2615
404.7054	0.257
404.911	0.2612
405.1167	0.2618
405.3223	0.2618
405.5279	0.2656
405.7335	0.2615
405.9391	0.2588
406.1447	0.2639
406.3502	0.2656
406.5558	0.2716
406.7613	0.2627
406.9668	0.2563
407.1724	0.2683
407.3778	0.2656
407.5833	0.2497
407.7888	0.2615
407.9942	0.2691
408.1997	0.2718
408.4051	0.2658
408.6105	0.2676
408.8159	0.2605
409.0213	0.2689
409.2267	0.2664
409.432	0.2618
409.6374	0.2633
409.8427	0.2649
410.048	0.2599
410.2533	0.254
410.4586	0.2583
410.6639	0.263
410.8691	0.2548
411.0744	0.2574
411.2796	0.2667
411.4848	0.2697
411.69	0.2734
411.8952	0.2588
412.1004	0.2675
412.3056	0.2629
412.5107	0.2757
412.7158	0.27
412.921	0.2611
413.1261	0.2597
413.3312	0.2672
413.5362	0.2718
413.7413	0.2625
413.9464	0.2542
414.1514	0.2576
414.3564	0.2621
414.5614	0.2627
414.7664	0.2499
414.9714	0.2533
415.1764	0.2576
415.3813	0.2528
415.5863	0.2613
415.7912	0.2536
415.9961	0.2514
416.201	0.2646
416.4059	0.2615
416.6108	0.2604
416.8156	0.2494
417.0205	0.2604
417.2253	0.2542
417.4301	0.2644
417.6349	0.2578
417.8397	0.2565
418.0445	0.259
418.2492	0.2434
418.454	0.2546
418.6587	0.2471
418.8634	0.2531
419.0681	0.2589
419.2728	0.246
419.4775	0.2608
419.6822	0.2429
419.8868	0.2529
420.0915	0.2499
420.2961	0.2421
420.5007	0.2481
420.7053	0.2479
420.9099	0.2429
421.1144	0.2452
421.319	0.2442
421.5235	0.2355
421.728	0.2427
421.9325	0.2363
422.137	0.2422
422.3415	0.2448
422.546	0.2327
422.7504	0.2388
422.9549	0.2453
423.1593	0.2268
423.3637	0.2389
423.5681	0.2352
423.7725	0.2362
423.9769	0.2384
424.1812	0.2268
424.3856	0.2221
424.5899	0.2263
424.7942	0.2305
424.9985	0.224
425.2028	0.2375
425.4071	0.2328
425.6113	0.2266
425.8156	0.2216
426.0198	0.2214
426.224	0.2356
426.4282	0.2156
426.6324	0.221
426.8366	0.2171
427.0407	0.2166
427.2449	0.2119
427.449	0.2125
427.6531	0.2234
427.8572	0.2119
428.0613	0.2304
428.2654	0.2191
428.4694	0.2099
428.6735	0.2082
428.8775	0.2036
429.0815	0.2048
429.2855	0.2025
429.4895	0.2033
429.6935	0.2007
429.8975	0.1945
430.1014	0.2022
430.3053	0.2045
430.5093	0.1916
430.7132	0.195
430.9171	0.1888
431.1209	0.1952
431.3248	0.1823
431.5286	0.1849
431.7325	0.1899
431.9363	0.1736
432.1401	0.1795
432.3439	0.1752
432.5477	0.1742
432.7514	0.1783
432.9552	0.1757
433.1589	0.1738
433.3627	0.1759
433.5664	0.1661
433.7701	0.1685
433.9737	0.1658
434.1774	0.1644
434.3811	0.1653
434.5847	0.1599
434.7883	0.1691
434.9919	0.1588
435.1955	0.1593
435.3991	0.1658
435.6027	0.1456
435.8062	0.164
436.0098	0.1448
436.2133	0.1426
436.4168	0.1476
436.6203	0.1329
436.8238	0.1426
437.0272	0.1356
437.2307	0.1351
437.4341	0.1371
437.6375	0.1382
437.841	0.1268
438.0443	0.1358
438.2477	0.1296
438.4511	0.1198
438.6545	0.1376
438.8578	0.1264
439.0611	0.1171
439.2644	0.1247
439.4677	0.1165
439.671	0.1154
439.8743	0.1188
440.0775	0.1104
440.2808	0.1096
440.484	0.1103
440.6872	0.1061
440.8904	0.1037
441.0936	0.1136
441.2967	0.0934
441.4999	0.0976
441.703	0.1023
441.9062	0.105
442.1093	0.1098
442.3124	0.0971
442.5155	0.1001
442.7185	0.0926
442.9216	0.0972
443.1246	0.0958
443.3276	0.0943
443.5307	0.0799
443.7337	0.0911
443.9366	0.0837
444.1396	0.0895
444.3426	0.0839
444.5455	0.0803
444.7484	0.0805
444.9513	0.0798
445.1542	0.079
445.3571	0.0769
445.56	0.0693
445.7628	0.0703
445.9657	0.0742
446.1685	0.0724
446.3713	0.0786
446.5741	0.0812
446.7769	0.0755
446.9797	0.066
447.1824	0.0679
447.3852	0.0515
447.5879	0.0589
447.7906	0.0513
447.9933	0.065
448.196	0.0584
448.3986	0.0575
448.6013	0.0547
448.8039	0.0627
449.0066	0.0609
449.2092	0.0674
449.4118	0.0528
449.6143	0.0496
449.8169	0.0574
450.0195	0.0535
450.222	0.0621
450.4245	0.0465
450.627	0.0517
450.8295	0.0357
451.032	0.0422
451.2345	0.0389
451.4369	0.0436
451.6394	0.0448
451.8418	0.0494
452.0442	0.0421
452.2466	0.0347
452.449	0.0449
452.6513	0.0372
452.8537	0.0381
453.056	0.0384
453.2583	0.0394
453.4607	0.0345
453.663	0.0337
453.8652	0.0333
454.0675	0.038
454.2697	0.0343
454.472	0.0336
454.6742	0.0305
454.8764	0.0421
455.0786	0.0314
455.2808	0.0225
455.4829	0.0332
455.6851	0.0295
455.8872	0.0266
456.0893	0.0288
456.2915	0.0193
456.4935	0.0368
456.6956	0.022
456.8977	0.0262
457.0997	0.0324
457.3018	0.0156
457.5038	0.0335
457.7058	0.0237
457.9078	0.0322
458.1098	0.0241
458.3117	0.0258
458.5137	0.0094
458.7156	0.02
458.9175	0.0221
459.1194	0.0233
459.3213	0.0139
459.5232	0.02
459.725	0.0221
459.9269	0.0231
460.1287	0.0221
460.3305	0.0202
460.5323	0.0104
460.7341	0.0202
460.9359	0.0107
461.1376	0.0254
461.3394	0.0212
461.5411	0.0251
461.7428	0.0173
461.9445	0.0202
462.1462	0.0131
462.3479	0.0089
462.5495	0.0262
462.7512	0.024
462.9528	0.0136
463.1544	0.0069
463.356	0.0047
463.5576	0.0205
463.7592	0.0148
463.9607	0.0164
464.1623	0.0093
464.3638	0.0153
464.5653	0.0234
464.7668	0.0182
464.9683	0.0109
465.1697	0.0184
465.3712	0.0073
465.5726	0.0121
465.7741	0.0176
465.9755	0.0144
466.1769	0.0193
466.3782	0.0094
466.5796	0.0156
466.7809	0.0219
466.9823	0.0146
467.1836	0.0106
467.3849	0.0139
467.5862	-0.0001
467.7875	0.0048
467.9887	0.0192
468.19	0.0093
468.3912	0.008
468.5924	0.0053
468.7936	0.0135
468.9948	-0.004
469.196	0.0155
469.3972	0.0011
469.5983	0.0036
469.7994	0.0128
470.0006	0.0111
470.2017	0.0099
470.4027	0.0166
470.6038	0.0078
470.8049	0.0079
471.0059	0.0093
471.2069	0.0147
471.408	0.0141
471.6089	0.0106
471.8099	0.0103
472.0109	0.0197
472.2119	0.0214
472.4128	0.0124
472.6137	0.0058
472.8146	0.0085
473.0155	0.0266
473.2164	0.0157
473.4173	0.001
473.6181	0.0034
473.819	0.0075
474.0198	-0.0044
474.2206	-0.0081
474.4214	0.0058
474.6222	-0.0005
474.8229	-0.0004
475.0237	0.0111
475.2244	0.0091
475.4251	0.0021
475.6258	0.0069
475.8265	0.011
476.0272	-0.0031
476.2278	0.0073
476.4285	0.0071
476.6291	0.0087
476.8297	0.0065
477.0303	0.0072
477.2309	0.0089
477.4315	0.0107
477.632	-0.0003
477.8326	0.0101
478.0331	0.0186
478.2336	0.0044
478.4341	0.0107
478.6346	-0.0058
478.8351	0.0008
479.0355	0.0073
479.236	0.0122
479.4364	0.0119
479.6368	0.0031
479.8372	0.0098
480.0376	0.0093
480.2379	0.0013
480.4383	0.0131
480.6386	-0.0014
480.8389	0.0091
481.0392	0.0034
481.2395	0.008
481.4398	0.0105
481.6401	0.0062
481.8403	0.0073
482.0405	0.0009
482.2408	0.0125
482.441	0.0113
482.6411	0.0076
482.8413	0.0017
483.0415	0.0133
483.2416	0.0058
483.4417	0.003
483.6419	0.0021
483.8419	0.0106
484.042	0.0026
484.2421	-0.0056
484.4422	0
484.6422	0.0061
484.8422	0.004
485.0422	0.0043
485.2422	0.0056
485.4422	0.0062
485.6422	0.0005
485.8421	0.0023
486.042	0.011
486.242	-0.0016
486.4419	0.0005
486.6417	-0.0011
486.8416	0.0042
487.0415	-0.0019
487.2413	-0.0039
487.4411	0.0056
487.641	0.0031
487.8408	0.0069
488.0405	0.008
488.2403	-0.0005
488.4401	0.0044
488.6398	0.0114
488.8395	0.0138
489.0392	0.0067
489.2389	0.0081
489.4386	-0.0026
489.6383	0.009
489.8379	0.0056
490.0376	0.0093
490.2372	0.0008
490.4368	0.0079
490.6364	-0.0017
490.836	0.0052
491.0355	0.0015
491.2351	0.003
491.4346	0.0061
491.6341	0.0029
491.8336	0.0103
492.0331	0.0039
492.2326	0.0058
492.432	0.0057
492.6315	0.0071
492.8309	0.0082
493.0303	0.0074
493.2297	0.0094
493.4291	0.0072
493.6284	0.0117
493.8278	0.0018
494.0271	0.0078
494.2264	0.0054
494.4257	0.0096
494.625	0.0079
494.8243	0.004
495.0236	0.0098
495.2228	0.0132
495.422	0.0071
495.6213	0.0049
495.8205	0.012
496.0196	0.0056
496.2188	0.0022
496.418	0.0013
496.6171	0.0055
496.8162	0.0025
497.0153	0.0086
497.2144	0.004
497.4135	0.0004
497.6126	0.008
497.8116	-0.0068
498.0107	0.0048
498.2097	0.0033
498.4087	0.004
498.6077	0.0024
498.8067	0.0106
499.0056	-0.0011
499.2046	0.0067
499.4035	0.0043
499.6024	-0.0013
499.8013	0.011
500.0002	0.0145
500.199	0.0107
500.3979	-0.0034
500.5967	0.0066
500.7956	0.0025
500.9944	0.0025
501.1932	0.0108
501.3919	0.0049
501.5907	0.0074
501.7895	-0.0013
501.9882	0.0085
502.1869	0.0138
502.3856	0.0103
502.5843	-0.0025
502.783	0.0003
502.9816	0.0101
503.1803	0.0067
503.3789	0.0104
503.5775	0.0055
503.7761	-0.0005
503.9747	0.0116
504.1732	0.0031
504.3718	0.0158
504.5703	0.0057
504.7689	-0.0009
504.9674	0.001
505.1658	0.0095
505.3643	0.0076
505.5628	0.0098
505.7612	0.0069
505.9597	0.0037
506.1581	-0.0013
506.3565	-0.0004
506.5549	0.005
506.7532	-0.0001
506.9516	0.0064
507.1499	0.007
507.3482	0.006
507.5465	0.0111
507.7448	0.006
507.9431	0.0024
508.1414	-0.0014
508.3396	0.0034
508.5379	-0.0019
508.7361	0.0079
508.9343	0.0057
509.1325	0.0066
509.3306	-0.0006
509.5288	-0.0038
509.7269	0.0086
509.9251	0.0068
510.1232	0.0069
510.3213	0.0054
510.5193	0.0101
510.7174	-0.0027
510.9154	0.0118
511.1135	0.0032
511.3115	0.0039
511.5095	0.0063
511.7075	-0.0014
511.9055	-0.0027
512.1034	0.0058
512.3014	0.0045
512.4993	0.0031
512.6972	-0.0056
512.8951	0.0102
513.093	0.0032
513.2908	0.022
513.4887	0.0077
513.6865	-0.0004
513.8844	0.0051
514.0822	0.0091
514.2799	-0.0109
514.4777	-0.012
514.6755	0.0007
514.8732	0.0048
515.0709	0.005
515.2687	0.0023
515.4664	0.0084
515.664	0.0054
515.8617	0.0179
516.0594	0.0034
516.257	0.0024
516.4546	0.0194
516.6522	0.0023
516.8498	-0.0003
517.0474	0.0077
517.2449	0.0074
517.4425	0.0007
517.64	0.0068
517.8375	0.0139
518.035	0.0069
518.2325	0.0046
518.43	0.0005
518.6274	-0.0001
518.8249	-0.0068
519.0223	0.0134
519.2197	0.0069
519.4171	0.0047
519.6145	0.0156
519.8118	-0.0077
520.0092	0.0057
520.2065	0.0119
520.4038	-0.0026
520.6011	0.0134
520.7984	0.0093
520.9956	0.0067
521.1929	0.0089
521.3901	0.0127
521.5874	0.0082
521.7846	0.0006
521.9818	0.0053
522.1789	0.0048
522.3761	0.0187
522.5732	0.011
522.7704	-0.0049
522.9675	-0.0004
523.1646	-0.0002
523.3617	0.0137
523.5587	0.0025
523.7558	0.0027
523.9528	0.0149
524.1498	0.0063
524.3468	0.0033
524.5438	0.0073
524.7408	0.0026
524.9378	0.0063
525.1347	0.0007
525.3316	0.0068
525.5285	0.017
525.7254	0.0086
525.9223	0.0112
526.1192	0.0131
526.316	0.0217
526.5129	0.0056
526.7097	0.0079
526.9065	0.0114
527.1033	0.0142
527.3	0.0008
527.4968	0.0037
527.6935	-0.0092
527.8903	0.0091
528.087	0.0052
528.2837	0.0139
528.4804	0.0055
528.677	0.0088
528.8737	0.0087
529.0703	0.0142
529.2669	0.0021
529.4635	0.0147
529.6601	-0.0006
529.8567	0.0104
530.0532	0.007
530.2498	0.0081
530.4463	0.0025
530.6428	0.004
530.8393	0.0071
531.0358	-0.005
531.2322	0.0074
531.4287	-0.0007
531.6251	-0.0018
531.8215	0.0007
532.0179	0.0046
532.2143	0.0111
532.4107	0.017
532.607	0.0061
532.8034	0.0003
532.9997	-0.0033
533.196	0.0027
533.3923	0.0123
533.5886	0.0109
533.7848	0.0031
533.9811	0.0107
534.1773	0.0019
534.3735	0.0009
534.5697	0.0019
534.7659	0.0013
534.9621	0.0051
535.1582	0.0082
535.3544	0.0056
535.5505	0
535.7466	0.0059
535.9427	0.0081
536.1387	0.0026
536.3348	0.0085
536.5308	0.0084
536.7269	0.0017
536.9229	0.0094
537.1189	0.0093
537.3148	0.0081
537.5108	0.0051
537.7068	0.0107
537.9027	-0.0029
538.0986	0.0098
538.2945	-0.0094
538.4904	0.0047
538.6863	0.0015
538.8821	0.0146
539.078	0.01
539.2738	0.01
539.4696	-0.0022
539.6654	0.0064
539.8611	0.0054
540.0569	0.0018
540.2526	0.0025
540.4484	-0.0076
540.6441	0.0048
540.8398	0.0101
541.0355	0.0011
541.2311	0.005
541.4268	0.0052
541.6224	0.0166
541.818	0.005
542.0136	0.0012
542.2092	0.0137
542.4048	0.0021
542.6003	-0.0062
542.7959	0.0088
542.9914	0.0095
543.1869	0.0045
543.3824	0.0024
543.5779	0.0155
543.7734	0.0133
543.9688	0.0071
544.1642	0.0064
544.3596	0.0061
544.555	0.0005
544.7504	0.0058
544.9458	0.0144
545.1411	0.0115
545.3365	0.0098
545.5318	0.0058
545.7271	0.0028
545.9224	0.0089
546.1177	0.0019
546.3129	0.0056
546.5081	0.0065
546.7034	0.0137
546.8986	0.0006
547.0938	0.007
547.289	0.0096
547.4841	0.0108
547.6793	0.0085
547.8744	0.0051
548.0695	0.0077
548.2646	0.0041
548.4597	-0.0023
548.6548	0.013
548.8498	0.007
549.0448	0.005
549.2399	0.0217
549.4349	0.0112
549.6298	0.0024
549.8248	0.0013
550.0198	0.021
550.2147	0.0085
550.4096	-0.0023
550.6045	0.0034
550.7994	0.005
550.9943	0.001
551.1892	-0.0029
551.384	0.0138
551.5788	0.0025
551.7737	0.0012
551.9685	0.0085
552.1632	-0.0072
552.358	0.0043
552.5528	0.0049
552.7475	0.0073
552.9422	0.0101
553.1369	0.0088
553.3316	0.0064
553.5263	0.0061
553.7209	0.0053
553.9156	0.0088
554.1102	0.0114
554.3048	-0.0031
554.4994	-0.0056
554.694	0.0088
554.8885	0.0002
555.0831	0.016
555.2776	0.0006
555.4721	-0.0002
555.6666	0.0053
555.8611	0.006
556.0555	0.0062
556.25	0.0127
556.4444	-0.0009
556.6388	0.0028
556.8332	-0.0042
557.0276	0.0082
557.222	0.0081
557.4163	0.0081
557.6107	-0.0025
557.805	0.0032
557.9993	0.0024
558.1936	0.0007
558.3879	0.0031
558.5821	-0.0002
558.7764	0.0062
558.9706	-0.0029
559.1648	0.0029
559.359	-0.0066
559.5532	-0.0029
559.7473	0.0046
559.9415	0.0024
560.1356	0.0169
560.3297	-0.0032
560.5238	0.009
560.7179	0.0015
560.9119	0.0056
561.106	0.0022
561.3	0.0021
561.494	-0.0083
561.688	-0.0002
561.882	0.0032
562.076	0.0095
562.2699	0.0106
562.4639	0.0092
562.6578	0.0071
562.8517	0.0103
563.0456	0.0068
563.2395	0.0027
563.4333	-0.0014
563.6272	0.0013
563.821	0.0009
564.0148	0.0028
564.2086	0.0016
564.4024	0.0138
564.5961	0.0118
564.7899	0.0142
564.9836	-0.0018
565.1773	0.0137
565.371	0.0013
565.5647	0.0002
565.7584	0.0112
565.952	0.0087
566.1456	0.01
566.3393	0.0057
566.5329	0.0035
566.7264	0.0118
566.92	0.0025
567.1136	0.0029
567.3071	-0.0007
567.5006	0.0088
567.6941	-0.0034
567.8876	-0.0003
568.0811	0.0188
568.2745	0.0007
568.468	0.0094
568.6614	0.005
568.8548	0.0071
569.0482	0.006
569.2416	0.006
569.4349	0.008
569.6283	-0.0016
569.8216	0.0108
570.0149	0.0038
570.2082	0.0096
570.4015	0.0033
570.5947	0.0082
570.788	0.0064
570.9812	0.002
571.1744	0.0065
571.3676	0.0052
571.5608	0.0049
571.754	0.0108
571.9471	0.0075
572.1402	0.0033
572.3333	0.0116
572.5264	0.0045
572.7195	0.0061
572.9126	0.0035
573.1057	0.0062
573.2987	0.0059
573.4917	0.0018
573.6847	-0.0015
573.8777	0.0116
574.0707	0.0052
574.2636	0.0052
574.4566	0.0021
574.6495	0.0008
574.8424	0.0052
575.0353	0.0065
575.2281	0.0082
575.421	0.0043
575.6138	0.0011
575.8067	0.0051
575.9995	0.0023
576.1923	0.0043
576.385	0.0036
576.5778	0.003
576.7706	0.0063
576.9633	0.0087
577.156	-0.0019
577.3487	0.0052
577.5414	0.0028
577.734	0.0001
577.9267	0.0033
578.1193	0.008
578.3119	0.0046
578.5045	0.0053
578.6971	0.0047
578.8897	0.003
579.0822	0.0074
579.2747	0.0069
579.4673	0.004
579.6598	0.0062
579.8522	0.0024
580.0447	0.004
580.2372	0.0105
580.4296	0.009
580.622	0.0028
580.8144	0.0054
581.0068	0.0019
581.1992	0.0044
581.3915	-0
581.5839	0.004
581.7762	0.0036
581.9685	-0.0012
582.1608	0.0041
582.353	0.0013
582.5453	0.004
582.7375	0.0047
582.9298	0.0028
583.122	0.0058
583.3142	0.0107
583.5063	0.0058
583.6985	0.0055
583.8906	-0.0008
584.0827	0.0044
584.2749	0.0053
584.4669	0.0031
584.659	0.0075
584.8511	0.0079
585.0431	0.006
585.2352	0.0028
585.4272	0.0044
585.6192	0.0061
585.8111	0.0051
586.0031	0.0014
586.195	0.0033
586.387	0.0003
586.5789	0.0084
586.7708	0.009
586.9627	0.0067
587.1545	0.0063
587.3464	0.0072
587.5382	0.0061
587.73	0.0063
587.9218	0.0002
588.1136	-0.0006
588.3053	0.0027
588.4971	0.0015
588.6888	0.0045
588.8805	0.003
589.0722	0.0154
589.2639	0.0035
589.4556	0.0099
589.6472	0.0097
589.8389	0.0015
590.0305	0.0007
590.2221	0.0108
590.4137	0.0055
590.6052	0.0072
590.7968	0.0028
590.9883	0.0032
591.1798	-0.005
591.3713	0.0024
591.5628	-0.0021
591.7543	0.0109
591.9458	0.0023
592.1372	0.0092
592.3286	-0.0016
592.52	0.0045
592.7114	0.0038
592.9028	0.0101
593.0941	0.004
593.2855	0.0077
593.4768	0.0108
593.6681	0.0079
593.8594	0.0131
594.0506	0.0047
594.2419	0.0038
594.4331	0.0007
594.6244	0.0034
594.8156	0.0084
595.0067	0.0012
595.1979	-0.0026
595.3891	0.0017
595.5802	0.0118
595.7713	0.0025
595.9624	0.0077
596.1535	0.0054
596.3446	-0.0021
596.5357	0.0062
596.7267	-0.0006
596.9177	0.0028
597.1087	-0.0022
597.2997	0.013
597.4907	0.0005
597.6817	0.0097
597.8726	0.0074
598.0635	-0.0012
598.2544	0.0039
598.4453	0.0057
598.6362	0.005
598.827	0.0057
599.0179	0.006
599.2087	0.0103
599.3995	0.0108
599.5903	0.0119
599.7811	0.0104
599.9718	0.0048
600.1626	-0.0008
600.3533	0.004
600.544	0.0006
600.7347	-0.0004
600.9254	0.005
601.116	0.0063
601.3067	0.003
601.4973	0.0038
601.6879	0.0063
601.8785	0.0111
602.0691	0.0046
602.2596	0.0031
602.4502	0.0026
602.6407	0.0052
602.8312	0.0033
603.0217	0.0083
603.2122	0.0062
603.4027	0.0036
603.5931	0.0007
603.7835	0.002
603.9739	-0.0012
604.1643	0.0098
604.3547	0.0153
604.5451	0.0115
604.7354	0.0038
604.9257	0.0001
605.116	0.0015
605.3063	0.0045
605.4966	0.0093
605.6869	0.008
605.8771	0.0011
606.0673	0.0032
606.2575	-0.0002
606.4477	0.0112
606.6379	0.001
606.8281	0.0069
607.0182	0.0046
607.2083	0.0005
607.3985	0.0006
607.5885	0.0073
607.7786	0.0036
607.9687	0.0076
608.1587	0.0101
608.3488	0.0007
608.5388	-0.0002
608.7288	0.0001
608.9187	0.0066
609.1087	0.0045
609.2986	0.0089
609.4886	0.0043
609.6785	0.0055
609.8684	-0.0011
610.0582	0.0054
610.2481	-0.0003
610.4379	0.0088
610.6278	0.0028
610.8176	0.0058
611.0074	0.0087
611.1971	0.0046
611.3869	0.0079
611.5766	-0.006
611.7664	0.0079
611.9561	0.011
612.1458	0.0046
612.3354	-0.0031
612.5251	0.0035
612.7147	0.0111
612.9044	0.0045
613.094	0.0054
613.2836	-0.0031
613.4731	-0.0011
613.6627	0.0012
613.8522	0.0087
614.0417	0.0104
614.2313	0.0017
614.4207	0.0061
614.6102	0.012
614.7997	0.0117
614.9891	0.0035
615.1785	-0.0025
615.3679	0.007
615.5573	0.0007
615.7467	0.0006
615.9361	0.0044
616.1254	0.0095
616.3147	0.0117
616.504	0.0055
616.6933	-0.0001
616.8826	0.003
617.0718	0.0075
617.2611	-0.0016
617.4503	0.0073
617.6395	0.0104
617.8287	0.0086
618.0179	0.0042
618.207	0.0112
618.3961	0.0035
618.5853	0.0002
618.7744	0.0009
618.9634	0.0114
619.1525	0.0038
619.3416	0.0012
619.5306	0.011
619.7196	0.007
619.9086	0.0036
620.0976	-0.0042
620.2866	0.0009
620.4755	0.004
620.6645	0.0005
620.8534	-0.001
621.0423	0.0114
621.2312	0.0049
621.42	-0.0024
621.6089	0.0009
621.7977	0.0025
621.9865	0.0049
622.1753	0.0031
622.3641	0.0012
622.5529	-0.0008
622.7416	0.0024
622.9303	0.003
623.1191	0.0042
623.3078	0.0069
623.4964	0.0032
623.6851	0.0038
623.8737	0.002
624.0624	-0.0138
624.251	0.0052
624.4396	0.0023
624.6282	0.0159
624.8167	0.0037
625.0053	0.0022
625.1938	0.0032
625.3823	0.0052
625.5708	-0.0016
625.7593	0.0073
625.9477	0.0075
626.1362	0.0031
626.3246	0.0077
626.513	0.008
626.7014	0.0075
626.8898	0.0048
627.0781	0.0028
627.2665	-0.0019
627.4548	0.0004
627.6431	0.0115
627.8314	0.0185
628.0197	0.0093
628.2079	-0.0023
628.3962	0.0012
628.5844	0.0099
628.7726	0.0039
628.9608	0.0153
629.1489	0.0068
629.3371	-0.0031
629.5252	0.003
629.7134	-0.0073
629.9015	0.009
630.0895	-0.0149
630.2776	0.0167
630.4657	0.0119
630.6537	0.0142
630.8417	0.0071
631.0297	0.0044
631.2177	0.01
631.4057	0.0024
631.5936	-0.0022
631.7815	0.0043
631.9695	0.0178
632.1574	0.0073
632.3452	-0.0076
632.5331	0.0122
632.7209	0.008
632.9088	-0.0053
633.0966	0.0366
633.2844	0.0005
633.4722	0.0035
633.6599	0.0204
633.8477	0.0087
634.0354	0.024
634.2231	-0.0093
634.4108	-0.005
634.5985	0.0233
634.7861	0.0023
634.9738	0.0047
635.1614	0.003
635.349	0.008
635.5366	0.0101
635.7242	0.0062
635.9117	0.0189
636.0993	0.0089
636.2868	0.0048
636.4743	-0.0015
636.6618	-0.0104
636.8492	0.0059
637.0367	-0.0145
637.2241	-0.0036
637.4115	0.0276
637.5989	-0.01
637.7863	0.0276
637.9737	0.0019
638.161	0.008
638.3484	-0.0145
638.5357	0.0092
638.723	0.0282
638.9103	-0.0058
639.0975	-0.0032
639.2848	0.0208
639.472	0.0049
639.6592	0.0021
639.8464	-0.0095
640.0336	0.005
640.2208	-0.0046
640.4079	0.0049
640.595	-0.0059
640.7821	0.0192
640.9692	0.0092
641.1563	0.0069
641.3434	0.0112
641.5304	0.0055
641.7174	0.0216
641.9044	0.0141
642.0914	0.0073
642.2784	-0.0045
642.4653	0.0039
642.6523	0.0033
642.8392	-0.0024
643.0261	0.0179
643.213	0.0152
643.3999	0.0187
643.5867	-0.0085
643.7735	-0.0029
643.9604	-0.0041
644.1472	0.0087
644.3339	-0.0068
644.5207	-0.0085
644.7075	-0.0195
644.8942	-0.0136
645.0809	-0.0139
645.2676	-0.0039
645.4543	-0.0021
645.6409	0.0132
645.8276	-0.0005
646.0142	-0.0013
646.2008	0.0181
646.3874	-0.0203
646.574	-0.0051
646.7605	0.0026
646.9471	-0.0068
647.1336	-0.0107
647.3201	0.0109
647.5066	0.0089
647.6931	0.0058
647.8795	0.0096
648.0659	0.009
648.2524	0.0303
648.4388	-0.0002
648.6252	0.0231
648.8115	-0.0022
648.9979	0.0197
649.1842	0.0035
649.3705	0.0151
649.5568	-0.0038
649.7431	0.0089
649.9294	0.0062
650.1156	0.0066
650.3018	0.0103
650.488	0.0152
650.6742	0.0315
650.8604	0.0128
651.0466	0.0012
651.2327	-0.0053
651.4188	0.0151
651.6049	0.0213
651.791	0.0019
651.9771	0.0008
652.1632	0.002
652.3492	-0.0095
652.5352	0.0075
652.7212	0.0103
652.9072	-0.0064
653.0932	-0.0031
653.2791	0.0105
653.465	0.0087
653.651	0.0017
653.8369	0.0148
654.0227	-0.0032
654.2086	0.0091
654.3944	0.0107
654.5803	-0.0062
654.7661	0.0008
654.9519	-0.0002
655.1377	-0
655.3234	-0
655.5092	-0
655.6949	-0
655.8806	-0
656.0663	-0
656.2519	-0
656.4376	-0
656.6232	-0
656.8088	-0
656.9945	-0
657.18	-0
657.3656	-0
657.5511	-0
657.7367	-0
657.9222	-0
658.1077	-0
658.2932	-0
658.4786	-0
658.6641	-0
658.8495	-0
659.0349	-0
659.2203	-0
659.4057	-0
659.591	0.1604
659.7764	0.0282
659.9617	0.0082
660.147	-0.0076
660.3323	0.0099
660.5176	0.0055
660.7028	-0.0159
660.888	0.0113
661.0733	0.0144
661.2585	-0.0037
661.4436	0.0302
661.6288	0.0012
661.8139	-0.0084
661.9991	-0.0212
662.1842	0.0005
662.3693	-0.0124
662.5544	0.0165
662.7394	0.016
662.9245	0.003
663.1095	0.006
663.2945	-0.016
663.4795	0.0006
663.6644	-0.0143
663.8494	0.0103
664.0343	0.0036
664.2193	-0.0057
664.4042	0.02
664.589	0.0089
664.7739	0.0152
664.9587	-0.0088
665.1436	-0.0153
665.3284	-0.003
665.5132	-0.0186
665.698	-0.0091
665.8827	0.0213
666.0675	-0.0298
666.2522	0.0082
666.4369	0.0089
666.6216	0.0069
666.8063	-0.0043
666.9909	0.0089
667.1756	-0.0052
667.3602	-0.0036
667.5448	0.002
667.7294	0.0127
667.9139	-0.0007
668.0985	-0.0044
668.283	-0.0034
668.4675	0.0148
668.652	0.0141
668.8365	-0.0182
669.0209	0.001
669.2054	0.01
669.3898	0.0308
669.5742	0.0297
669.7586	0.0033
669.943	-0.0021
670.1273	-0.0109
670.3117	0.0121
670.496	0.0032
670.6803	-0.0049
670.8646	-0.0098
671.0488	0.0384
671.2331	-0.0118
671.4173	0.0025
671.6015	0.011
671.7857	0.001
671.9699	0.0106
672.1541	-0.0091
672.3382	0.0028
672.5223	-0.0017
672.7064	-0.0106
672.8905	0.0058
673.0746	0.0133
673.2587	0.0176
673.4427	0.0019
673.6267	0.0281
673.8107	0.0343
673.9947	0.0058
674.1787	0.0058
674.3626	0.0111
674.5465	0.0329
674.7304	0.0056
674.9143	0.0091
675.0982	-0.0046
675.2821	0.0061
675.4659	-0.0073
675.6497	0.0149
675.8335	-0.003
676.0173	-0.033
676.2011	-0.0029
676.3849	0.0074
676.5686	0.0152
676.7523	-0.013
676.936	0.0138
677.1197	-0.0005
677.3034	0.0111
677.487	0.0169
677.6706	0.0058
677.8542	0.0098
678.0378	0.011
678.2214	0.003
678.405	0.0044
678.5885	0.0124
678.772	0.0152
678.9555	-0.0111
679.139	0.0047
679.3225	0.0067
679.5059	-0.0036
679.6894	0.0144
679.8728	-0.0008
680.0562	-0.0015
680.2395	0.0093
680.4229	-0.001
680.6062	-0.008
680.7896	-0.0051
680.9729	0.0138
681.1562	-0.0179
681.3394	0.0009
681.5227	-0.0069
681.7059	0.0043
681.8891	0.0062
682.0723	0.009
682.2555	-0.0018
682.4387	0.0088
682.6218	-0.0191
682.805	0.0067
682.9881	0.0103
683.1712	-0.0061
683.3542	-0.0017
683.5373	-0.0032
683.7203	0.0034
683.9034	-0.0017
684.0864	-0.0076
684.2694	0.0036
684.4523	0.0017
684.6353	0.005
684.8182	0.002
685.0011	0.0175
685.184	0.0119
685.3669	0.029
685.5498	-0.015
685.7326	0.0097
685.9154	0.0048
686.0982	0.0131
686.281	-0.0047
686.4638	0.0169
686.6465	0.0218
686.8293	-0.007
687.012	-0.0028
687.1947	0.0096
687.3774	0.0107
687.56	-0.0122
687.7427	-0.0016
687.9253	-0.0282
688.1079	-0.0029
688.2905	-0.0107
688.4731	0.0069
688.6556	0.01
688.8382	-0.0309
689.0207	0.013
689.2032	0.0262
689.3857	0
689.5681	0.0025
689.7506	0.0315
689.933	0.0022
690.1154	0.0141
690.2978	0.0017
690.4802	0.0126
690.6626	0.0075
690.8449	0.0234
691.0272	-0.0095
691.2095	-0.0211
691.3918	-0.0013
691.5741	0.0059
691.7563	0.0111
691.9386	0.0119
692.1208	-0.0111
692.303	0.0028
692.4852	-0.0059
692.6673	0.0057
692.8495	-0.0108
693.0316	0.0146
693.2137	0.0094
693.3958	-0.0144
693.5778	0.0134
693.7599	-0.0133
693.9419	0.0106
694.1239	0.0066
694.3059	0.021
694.4879	-0.008
694.6699	0.0077
694.8518	0.0158
695.0337	-0.0046
695.2157	0.0136
695.3975	-0.0069
695.5794	-0.0084
695.7613	0.004
695.9431	-0.0112
696.1249	0.0182
696.3067	-0.0005
696.4885	0.0217
696.6703	0.0043
696.852	-0.0025
697.0337	0.0187
697.2154	0.0137
697.3971	0.0063
697.5788	0.016
697.7605	-0.005
697.9421	0.0217
698.1237	0.0013
698.3053	-0.0037
698.4869	0.0116
698.6685	0.0069
698.85	0.0324
699.0315	-0.0231
699.213	-0.0111
699.3945	-0.0057
699.576	0.0212
699.7575	0.0178
699.9389	-0.0077
700.1203	-0.0067
700.3017	0.0004
700.4831	0.0099
700.6645	0.0196
700.8458	0.008
701.0271	0.0289
701.2084	0.0159
701.3897	0.0156
701.571	-0.0246
701.7523	0.0176
701.9335	0.0107
702.1147	0.0242
702.2959	0.0043
702.4771	0.0018
702.6583	-0.0133
702.8394	-0.0198
703.0205	0.0272
703.2016	0.0173
703.3827	-0.0072
703.5638	-0.0052
703.7449	0.0186
703.9259	0.0029
704.1069	0.0004
704.2879	0.016
704.4689	-0.0082
704.6499	0.0088
704.8308	0.0171
705.0117	0.0072
705.1927	0.0192
705.3735	0.001
705.5544	0.0032
705.7353	0.0246
705.9161	-0.0088
706.0969	0.0088
706.2777	-0.0023
706.4585	-0.0147
706.6393	0.0156
706.82	0.0112
707.0007	-0.0118
707.1815	-0.0067
707.3621	0.0222
707.5428	0.0159
707.7235	-0.0024
707.9041	0.0089
708.0847	0.0052
708.2653	0.0363
708.4459	-0.0157
708.6265	0.0017
708.807	0.0059
708.9875	-0.0296
709.168	-0.022
709.3485	0.0164
709.529	-0.0028
709.7095	-0.0081
709.8899	0.005
710.0703	0.0216
710.2507	-0.0095
710.4311	-0.0256
710.6115	0.0135
710.7918	0.0083
710.9721	0.0109
711.1524	-0.0195
711.3327	0.0032
711.513	-0.0004
711.6932	0.0068
711.8735	0.0379
712.0537	-0.0214
712.2339	-0.0024
712.4141	0.0087
712.5942	-0.0171
712.7744	0.0186
712.9545	0.0074
713.1346	0.033
713.3147	0.0048
713.4947	0.0025
713.6748	0.0209
713.8548	0.0127
714.0348	0.0067
714.2148	0.0211
714.3948	0.0229
714.5748	0.0233
714.7547	0.0086
714.9346	0.0316
715.1145	0.0014
715.2944	-0.0167
715.4743	0.0262
715.6541	-0.0156
715.834	0.0381
716.0138	0.0205
716.1936	-0.0005
716.3733	0.0015
716.5531	0.017
716.7328	0.0289
716.9126	0.0056
717.0923	-0.0048
717.2719	0.006
717.4516	0.0004
717.6312	-0.0171
717.8109	0.0423
717.9905	0.0285
718.1701	0.0188
718.3496	0.0104
718.5292	-0.0111
718.7087	0.0207
718.8882	0.0247
719.0677	-0.0097
719.2472	-0.0078
719.4267	0
719.6061	0.0078
719.7856	0.0299
719.965	0.0085
720.1443	-0.0066
720.3237	-0.0185
720.5031	-0.0179
720.6824	-0.0222
720.8617	0.0087
721.041	0.0125
721.2203	-0.0386
721.3995	0.0066
721.5788	0.0016
721.758	-0.0037
721.9372	0.0021
722.1164	-0.003
722.2956	-0.0035
722.4747	0.0432
722.6538	-0.0083
722.8329	0.0149
723.012	0.0156
723.1911	0.0231
723.3702	0.0129
723.5492	0.0018
723.7282	-0.0068
723.9072	0.0268
724.0862	0.0009
724.2652	0.0238
724.4441	-0.021
724.623	0.0046
724.8019	-0.0049
724.9808	0.0304
725.1597	-0.0183
725.3385	-0.009
725.5174	-0.0033
725.6962	0.0195
725.875	0.0118
726.0538	0.0007
726.2325	0.0317
726.4112	-0.0204
726.59	-0.0316
726.7687	-0.0421
726.9474	0.0271
727.126	-0.0019
727.3047	0.0012
727.4833	-0.0018
727.6619	-0.0028
727.8405	-0.0054
728.0191	0.0304
728.1976	-0.0108
728.3762	0.012
728.5547	-0.0018
728.7332	0.0158
728.9116	0.0007
729.0901	0.0026
729.2686	-0.0099
729.447	0.0054
729.6254	0.0232
729.8038	-0.0059
729.9821	-0.0047
730.1605	0.0158
730.3388	-0.0098
730.5171	0.011
730.6954	-0.0227
730.8737	-0.0052
731.0519	-0.0073
731.2302	0.0182
731.4084	-0.0096
731.5866	-0.0091
731.7648	0.0042
731.9429	0.005
732.1211	-0.0145
732.2992	-0.0011
732.4773	-0.0109
732.6554	-0.0308
732.8335	0.0403
733.0115	0.0048
733.1896	-0.0137
733.3676	0.0129
733.5456	0.0095
733.7235	-0.0088
733.9015	0.0059
734.0794	-0.0135
734.2574	-0.0219
734.4353	0.004
734.6131	0.0006
734.791	-0.0042
734.9689	-0.0106
735.1467	-0.0168
735.3245	0.012
735.5023	0.0115
735.68	0.0072
735.8578	0.0173
736.0355	0.0144
736.2132	0.0287
736.3909	0.0138
736.5686	-0.0021
736.7463	-0.0113
736.9239	0.028
737.1015	-0.0053
737.2791	0.0113
737.4567	0.0128
737.6343	-0.0226
737.8118	-0.0007
737.9894	-0.0028
738.1669	-0.0069
738.3444	0.0224
738.5218	-0.0129
738.6993	0.0025
738.8767	0.0155
739.0541	-0.0047
739.2315	-0.0052
739.4089	0.0168
739.5863	0.0106
739.7636	-0.0215
739.9409	-0.01
740.1182	-0.018
740.2955	0.0318
740.4728	-0.0008
740.65	-0.0142
740.8272	0.0264
741.0044	-0.015
741.1816	0.0274
741.3588	-0.0317
741.5359	-0.028
741.7131	0.0135
741.8902	-0.019
742.0673	-0.0181
742.2444	0.0133
742.4214	0.0209
742.5985	0.0051
742.7755	0.0009
742.9525	-0.0202
743.1295	-0.0114
743.3064	-0.0148
743.4834	-0.016
743.6603	0.0285
743.8372	-0.0339
744.0141	0.026
744.191	-0.0028
744.3678	-0.0405
744.5446	0.0055
744.7215	0.0439
744.8982	0.0019
745.075	0.0339
745.2518	-0.0036
745.4285	0.014
745.6052	-0.0447
745.7819	-0.0051
745.9586	0.026
746.1353	-0.0237
746.3119	-0.0147
746.4885	0.0234
746.6651	0.007
746.8417	-0.0197
747.0183	0.0197
747.1948	0.0123
747.3714	0.0217
747.5479	0.0244
747.7244	0.0103
747.9008	-0.0259
748.0773	0.0054
748.2537	-0.0119
748.4301	0.0214
748.6065	-0.0102
748.7829	-0.0139
748.9593	-0.0157
749.1356	-0.0085
749.3119	0.0172
749.4882	0.0162
749.6645	0.0154
749.8408	0.0082
750.017	0.0071
750.1933	-0.0269
750.3695	0.0123
750.5457	0.0155
750.7218	-0.0202
750.898	-0.0142
751.0741	-0.0072
751.2502	0.0132
751.4263	0.009
751.6024	0.0029
751.7784	-0.0171
751.9545	-0.0014
752.1305	0.0012
752.3065	0.0032
752.4825	0.0122
752.6584	0.0051
752.8344	0.0037
753.0103	-0.001
753.1862	0.0254
753.3621	0.0063
753.5379	0.0014
753.7138	0.01
753.8896	0.0165
754.0654	-0.0161
754.2412	0.0173
754.417	0.021
754.5927	0.009
754.7685	0.0244
754.9442	0.0083
755.1199	0.0053
755.2956	0.0169
755.4712	-0.005
755.6469	0.0221
755.8225	0.0261
755.9981	0.0013
756.1736	-0.0036
756.3492	0.0111
756.5248	0.0302
756.7003	0.01
756.8758	-0.0134
757.0513	-0.0075
757.2267	0.0138
757.4022	0.006
757.5776	0.006
757.753	0.0233
757.9284	-0.0048
758.1038	0.0122
758.2791	0.0006
758.4545	-0.0263
758.6298	-0.0008
758.8051	0.0063
758.9803	0.0163
759.1556	0.0153
759.3308	-0.0011
759.506	0.0148
759.6812	0.0017
759.8564	-0.0146
760.0316	-0.0055
760.2067	0.0255
760.3819	0.0014
760.557	0.0083
760.732	-0.0004
760.9071	0.0119
761.0821	0.0032
761.2572	0.0224
761.4322	0.0057
761.6072	-0.0097
761.7821	-0.0236
761.9571	0.0281
762.132	0.0128
762.3069	-0.0017
762.4818	0.0287
762.6567	0.0187
762.8316	0.0279
763.0064	-0.0085
763.1812	0.0032
763.356	-0.0158
763.5308	0.027
763.7055	-0.0203
763.8803	-0.0022
764.055	-0.0075
764.2297	-0.0182
764.4044	0.0047
764.579	0.0149
764.7537	0.001
764.9283	-0.0028
765.1029	0
765.2775	0.0219
765.4521	0.0103
765.6266	-0.0059
765.8011	0.0209
765.9756	0.0226
766.1501	-0.0112
766.3246	0.0064
766.4991	0.0267
766.6735	0.002
766.8479	-0.0042
767.0223	-0.0128
767.1967	-0.0005
767.371	-0.0141
767.5454	0.0326
767.7197	0.0174
767.894	0.0115
768.0683	0.0279
768.2425	-0.0049
768.4168	-0.0134
768.591	0.0282
768.7652	0.013
768.9394	-0.0109
769.1135	-0.0056
769.2877	0.0166
769.4618	0.0234
769.6359	-0.0255
769.81	0.0066
769.984	0.0165
770.1581	-0.0158
770.3321	0.0175
770.5061	0.0058
770.6801	-0.0016
770.8541	0.0094
771.028	0.0253
771.202	0.0279
771.3759	-0.0107
771.5498	-0.0029
771.7236	0.005
771.8975	0.0258
772.0713	0.0168
772.2451	-0.0087
772.4189	-0.0067
772.5927	-0.0126
772.7665	-0.019
772.9402	0.0021
773.1139	-0.0011
773.2876	-0.0256
773.4613	0.0334
773.635	0.0085
773.8086	0.0115
773.9822	0.0241
774.1558	0.0558
774.3294	0.0167
774.503	0.0265
774.6765	0.049
774.8501	-0.0127
775.0236	-0.0265
775.1971	-0.0164
775.3705	0.0016
775.544	-0.0213
775.7174	0.0167
775.8908	0.0089
776.0642	-0.0016
776.2376	-0.0242
776.4109	-0.02
776.5843	-0.0272
776.7576	0.0608
776.9309	0.0403
777.1041	-0.0052
777.2774	0.0239
777.4506	-0.0076
777.6238	-0.0296
777.797	0.0008
777.9702	0.0398
778.1434	0.0275
778.3165	-0.0163
778.4896	-0.0337
778.6627	0.0282
778.8358	0.0088
779.0089	-0.0112
779.1819	-0.001
779.3549	0.0281
779.5279	-0.0006
779.7009	0.0434
779.8739	0.0206
780.0468	-0.0006
780.2197	0.0282
780.3926	-0.0345
780.5655	0.0047
780.7384	0.0006
780.9112	0.0024
781.0841	0.0084
781.2569	-0.0176
781.4297	0.0272
781.6024	0.0244
781.7752	0.0354
781.9479	0.0286
782.1206	-0.0068
782.2933	0.0018
782.466	0.0355
782.6386	-0.0239
782.8113	-0.0046
782.9839	-0.0144
783.1565	0.0084
783.329	-0.004
783.5016	0.0128
783.6741	0.0099
783.8466	0.0384
784.0191	-0.0006
784.1916	0.0001
784.3641	-0.0467
784.5365	0.0374
784.7089	-0.0074
784.8813	0.0453
785.0537	0.024
785.2261	-0.0341
785.3984	0.0063
785.5707	-0.0292
785.743	0.026
785.9153	-0.0202
786.0876	-0.0236
786.2598	-0.0175
786.432	0.0129
786.6042	0.0294
786.7764	-0.0202
786.9486	0.0008
787.1207	0.0334
787.2928	0.0343
787.4649	-0.0226
787.637	-0.0017
787.8091	-0.0046
787.9811	0.0496
788.1532	0.0128
788.3252	0.0089
788.4972	-0.0043
788.6691	-0.0227
788.8411	-0.0176
789.013	0.0232
789.1849	-0.0173
789.3568	-0.0289
789.5287	0.0395
789.7005	-0.0712
789.8723	-0.0528
790.0442	-0.0316
790.2159	-0.002
790.3877	0.046
790.5595	-0.0152
790.7312	-0.0204
790.9029	-0.0306
791.0746	0.0342
791.2463	-0.042
791.4179	0.0735
791.5896	0.0192
791.7612	0.0333
791.9328	0.0179
792.1044	-0.0493
792.2759	-0.0333
792.4474	-0.0034
792.619	-0.022
792.7905	0.0128
792.9619	0.0436
793.1334	0.0719
793.3048	0.0477
793.4762	0.012
793.6476	-0.0414
793.819	0.0047
793.9904	-0.0054
794.1617	-0.0241
794.333	0.0196
794.5043	0.0128
794.6756	-0.0208
794.8469	0.0349
795.0181	-0.0012
795.1893	0.0178
795.3605	-0.0018
795.5317	0.0089
795.7029	0.0009
795.874	0.0133
796.0452	0.0011
796.2163	0.0969
796.3873	0.0513
796.5584	-0.0368
796.7294	-0.0259
796.9005	0.0368
797.0715	-0.0615
797.2425	0.0418
797.4134	0.054
797.5844	0.0669
797.7553	-0.0269
797.9262	0.0873
798.0971	-0.0112
798.2679	-0.0303
798.4388	-0.0044
798.6096	0.0182
798.7804	-0.0361
798.9512	-0.0137
799.122	-0.0037
799.2927	0.0221
799.4635	-0.0258
799.6342	-0.0237
799.8049	0.043
799.9755	-0.0342
800.1462	0.0225
800.3168	-0.0254
800.4874	-0.0288
800.658	-0.0511
800.8286	-0.0045
800.9991	-0.0183
801.1696	-0.0415
801.3402	-0.04
801.5106	-0.0837
801.6811	-0.0138
801.8516	0.1563
802.022	-0.0307
802.1924	-0.03
802.3628	0.0749
802.5332	-0.0347
802.7035	0.0146
802.8739	0.0387
803.0442	-0.0287
803.2145	0.0151
803.3847	-0.044
803.555	0.0644
803.7252	-0.0257
803.8954	0.0152
804.0656	0.0282
804.2358	-0.0071
804.4059	0.1106
804.5761	0.0117
804.7462	0.0795
804.9163	-0.0107
805.0864	-0.0445
805.2564	-0.0615
805.4264	-0.0176
805.5965	0.0837
805.7665	-0.0178
805.9364	-0.0552
806.1064	-0.016
806.2763	0.0213
806.4462	0.0104
806.6161	0.0472
806.786	0.0051
806.9559	0.023
807.1257	0.0166
807.2955	-0.0186
807.4653	0.0183
807.6351	0.0026
807.8048	0.0759
807.9746	0.0529
808.1443	-0.0776
808.314	0.0132
808.4837	0.0324
808.6533	-0.0887
808.8229	-0.0162
808.9926	0.0083
809.1622	0.059
809.3317	-0.033
809.5013	-0.0282
809.6708	0.0419
809.8403	-0.0015
810.0098	0.0885
810.1793	-0.0081
810.3488	0.0321
810.5182	0.1005
810.6876	0.1121
810.857	0.0046
811.0264	0.0801
811.1958	0.1626
811.3651	0.0319
811.5344	-0.0099
811.7037	0.111
811.873	0.0001
812.0422	-0.0964
812.2115	0.162
812.3807	-0.1807
812.5499	0.0554
812.7191	-0.1157
812.8882	-0.0771
813.0574	0.0081
813.2265	0.0371
813.3956	-0.0434
813.5646	0.1504
813.7337	0.0336
813.9027	-0.0447
814.0718	0.0173
814.2407	0.03
814.4097	-0.0054
814.5787	0.1282
814.7476	-0.017
814.9165	-0.0074
815.0854	0.0315
815.2543	-0.0248
815.4232	0.0113
815.592	0.0595
815.7608	-0.1949
815.9296	-0.0189
816.0984	0.0003
816.2671	-0.2448
816.4359	0.0028
816.6046	0.0418
816.7733	-0.0977
816.942	-0.0454
817.1106	0.0861
817.2793	0.0002
817.4479	0.0294
817.6165	0.0192
817.785	0.0024
817.9536	-0.1129
818.1221	0.0527
818.2906	-0.0562
818.4591	0.0968
818.6276	0.0202
818.7961	-0.1064
818.9645	0.0602
819.1329	0.2556
819.3013	0.0654
819.4697	-0.0362
819.638	0.0479
819.8064	-0.0344
819.9747	0.1658
820.143	0.029
820.3113	0.0829
820.4795	-0.0338
820.6477	0.1156
820.816	0.0139
820.9842	0.0979
821.1523	0.0623
821.3205	-0.0404
821.4886	-0.0538
821.6567	-0.0367
821.8248	0.0525
821.9929	-0.0507
822.1609	0.0771
822.329	0.1771
822.497	0.0282
822.665	-0.071
822.833	0.1062
823.0009	0.0294
823.1688	0.1053
823.3367	-0.1441
823.5046	0.0371
823.6725	0.0204
823.8404	0.0406
824.0082	-0.1053
824.176	-0.1436
824.3438	0.189
824.5116	0.1568
824.6793	0.0808
824.847	0.1525
825.0147	-0.0882
825.1824	0.0003
825.3501	0.1017
825.5177	-0.1073
825.6854	-0.243
825.853	-0.0202
826.0206	-0.1871
826.1881	0.0887
826.3557	0.2281
826.5232	0.1718
826.6907	0.0194
826.8582	0.0599
827.0257	0.1517
827.1931	0.0592
827.3605	-0.0257
827.528	-0.1695
827.6953	-0.0654
827.8627	-0.1164
828.03	0.0233
828.1974	-0.0382
828.3647	0.0399
828.532	0.0035
828.6992	-0.0109
828.8665	-0.2338
829.0337	0.1259
829.2009	-0.03
829.3681	-0.0304
829.5352	-0.3229
829.7024	0.1754
829.8695	0.1427
830.0366	0.2029
830.2037	0.0546
830.3707	-0.0325
830.5378	0.0471
830.7048	-0.1826
830.8718	0.0808
831.0388	0.0634
831.2057	0.1649
831.3727	-0.1964
831.5396	-0.0751
831.7065	-0.59
831.8734	0.2141
832.0402	0.4934
832.2071	-0.5436
832.3739	-0.362
832.5407	-1.6052
832.7075	-0.1573
832.8742	-0
833.041	0.1877
833.2077	0.2593
833.3744	0.2318
833.541	0.0145
833.7077	-0.0297
833.8743	0.2789
834.0409	-0.0065
834.2075	0.1179
834.3741	-0.2379
834.5407	-0.0305
834.7072	0.2399
834.8737	0.2708
835.0402	0.1443
835.2067	0.0496
835.3731	-0.0916
835.5395	0.0769
835.706	0.2401
835.8723	-0.085
836.0387	-0.1509
836.2051	0.3225
836.3714	0.4916
836.5377	-0.0375
836.704	0.3129
836.8703	-0.0493
837.0365	-0.8319
837.2027	-0.0072
837.3689	0.1228
837.5351	0.129
837.7013	-0.0374
837.8674	-0.3878
838.0335	-0.1367
838.1997	0.001
838.3657	-0
838.5318	-0.6366
838.6978	-0.0396
838.8639	-0.5537
839.0299	0.1087
839.1958	-0.0132
839.3618	-0.1354
839.5277	0.0545
839.6937	-0.177
839.8596	-0.3337
840.0254	-0.0158
840.1913	-0
840.3571	-0.1635
840.523	-0
840.6888	0.2203
840.8545	-0.6524
841.0203	0.3738
841.186	0.0081
841.3517	0.0398
841.5174	0.121
841.6831	0.0275
841.8488	-0.1232
842.0144	0.1649
842.18	0.4822
842.3456	-0.6204
842.5112	-0
842.6767	0.1439
842.8422	-0.0464
843.0077	0.0216
843.1732	-0
843.3387	-0.1637
843.5042	-0
843.6696	0.912
843.835	-0.1729
844.0004	0.4118
844.1657	-1.207
844.3311	-0.2139
844.4964	-0.4555
844.6617	0.4229
844.827	-0
844.9923	0.0411
845.1575	-0.0831
845.3227	0.0017
845.4879	0.0015
845.6531	-0.0589
845.8183	0.4103
845.9834	-0
846.1485	-0.044
846.3136	0.285
846.4787	-0
846.6438	-0.0725
846.8088	0.077
846.9738	-0.2139
847.1388	0.1188
847.3038	-0.0064
847.4687	-0
847.6337	-0.4737
847.7986	0.8323
847.9635	-0.02
848.1284	0.9765
848.2932	0.3384
848.458	-0
848.6228	0.373
848.7876	-0
848.9524	-0.4048
849.1172	-1.6052
849.2819	-0
849.4466	0.2808
849.6113	0.2742
849.7759	-0
849.9406	-0.1635
850.1052	-1.1526
850.2698	-0.1301
850.4344	-0.3105
850.599	0.1284
850.7635	0.5737
850.928	0.6156
851.0925	0.3605
851.257	-0.3098
851.4215	-0
851.5859	0.1107
851.7503	-0
851.9147	-0.2072
852.0791	-0.1442
852.2434	0.1288
852.4078	-0
852.5721	0.3253
852.7364	0.1346
852.9007	-0.1529
853.0649	-0
853.2291	-0.2535
853.3934	-0
853.5575	0.0631
853.7217	0.4349
853.8859	-0
854.05	-0.2668
854.2141	-0.0138
854.3782	-0.2687
854.5423	0.1844
854.7063	0.0608
854.8703	0.3892
855.0343	-0.2894
855.1983	0.2353
855.3623	-0.062
855.5262	-0
855.6901	0.2925
855.854	0.0064
856.0179	-0.395
856.1818	-0
856.3456	0.0681
856.5094	-0.3094
856.6732	-0.5435
856.837	-1.2996
857.0008	-0
857.1645	0.4168
857.3282	-0.4942
857.4919	-0.1609
857.6556	-0.2392
857.8192	-0.177
857.9828	-0.0102
858.1465	-0
858.31	-0.064
858.4736	-0.785
858.6372	-0.5729
858.8007	-0
858.9642	0.142
859.1277	0.8346
859.2911	-0.5357
859.4546	-0
859.618	-0
859.7814	-0.0019
859.9448	-0
860.1081	0.1982
860.2715	-1.6052
860.4348	0.2144
860.5981	0.7144
860.7614	-0.2479
860.9246	-0.2556
861.0879	0.7735
861.2511	-0.1678
861.4143	-0.5002
861.5774	-0.1834
861.7406	0.5938
861.9037	-0
862.0668	-0.7099
862.2299	-0
862.393	1.0392
862.556	-0
862.7191	-0.0745
862.8821	0.0809
863.0451	0.0767
863.208	-0
863.371	-0.5647
863.5339	0.4257
863.6968	0.5872
863.8597	1.0166
864.0225	-0
864.1854	-0
864.3482	-0.8309
864.511	-0.0105
864.6737	-0.3272
864.8365	0.0568
864.9992	-0
865.1619	-0.3324
865.3246	-1.4409
865.4873	-0
865.65	0.1132
865.8126	0.3227
865.9752	-0.4052
866.1378	-0.3417
866.3004	-0.0558
866.4629	-1.8195
866.6254	-0.1265
866.7879	-0.4682
866.9504	-0
867.1129	-0.2427
867.2753	0.2083
867.4377	-0.264
867.6001	-0
867.7625	0.0597
867.9249	-0
868.0872	-0.0422
868.2495	-0
868.4118	-0
868.5741	-0
868.7363	-0.2068
868.8986	-0.1718
869.0608	-0.1929
869.223	-0.2381
869.3851	-0
869.5473	0.2197
869.7094	-0
869.8715	-0.636
870.0336	0.0526
870.1957	-0
870.3577	0.1595
870.5197	-0.2429
870.6817	-0.8099
870.8437	0.0385
871.0057	-0
871.1676	0.319
871.3295	1.434
871.4914	-0.9243
871.6533	-0.0627
871.8151	0.3892
871.977	-0.6169
872.1388	-0.3047
872.3006	-0.5948
872.4623	0.0781
872.6241	-0.1058
872.7858	-0.2091
872.9475	0.2783
873.1092	0.1641
873.2709	0.333
873.4325	-1.8625
873.5941	-0
873.7557	-0
873.9173	0.3407
874.0789	0.1937
874.2404	-0
874.4019	0.0852
874.5634	-0
874.7249	0.2039
874.8863	0.6969
875.0478	0.0737
875.2092	0.6501
875.3706	1.0494
875.5319	0.2239
875.6933	-0
875.8546	-0.2594
876.0159	0.1561
876.1772	-0
876.3385	-0
876.4997	0.5217
876.6609	-0
876.8221	-0
876.9833	-0.3612
877.1445	0.4814
877.3056	-1.2263
877.4667	-0
877.6278	-0
877.7889	0.7345
877.9499	0.1806
878.111	-0.6654
878.272	-0.1965
878.433	1.6736
878.5939	0.2603
878.7549	-0
878.9158	-0
879.0767	0.2726
879.2376	0.5557
879.3984	0.5247
879.5593	-0
879.7201	-0
879.8809	-0
880.0417	-0.2145
880.2024	0.1524
880.3632	0.1888
880.5239	-0.0256
880.6846	-0.3335
880.8452	-0.0501
881.0059	0.2361
881.1665	-0.2054
881.3271	1.0335
881.4877	0.534
881.6483	-1.0391
881.8088	-0
881.9693	-0
882.1298	-0
882.2903	-0
